%OpenBCI Raw EXG Data
%Number of channels = 8
%Sample Rate = 250 Hz
%Board = OpenBCI_GUI$BoardCytonSerial
Sample Index, EXG Channel 0, EXG Channel 1, EXG Channel 2, EXG Channel 3, EXG Channel 4, EXG Channel 5, EXG Channel 6, EXG Channel 7, Accel Channel 0, Accel Channel 1, Accel Channel 2, Other, Other, Other, Other, Other, Other, Other, Analog Channel 0, Analog Channel 1, Analog Channel 2, Timestamp, Other, Timestamp (Formatted)
0.0, -126218.33398560692, -126043.45393698859, -110719.61202855254, -125509.8730933515, -88347.86276195798, -88472.92077218542, -134513.66985007166, 50744.94191943907, -0.182, -0.34400000000000003, 0.298, 192.0, 250.0, 80.0, 245.0, 64.0, 9.0, 80.0, 0.0, 0.0, 0.0, 1.6969585484238913E9, 0.0, 2023-10-10 14:22:28.423
1.0, -126312.74775418613, -126165.36035124784, -110842.12193991207, -125637.52390593576, -88469.72447272831, -88588.63575323056, -134644.85223827985, 50636.84888325321, -0.182, -0.34400000000000003, 0.298, 192.0, 0.0, 0.0, 0.0, 0.0, 0.0, 0.0, 0.0, 0.0, 0.0, 1.696958548427889E9, 0.0, 2023-10-10 14:22:28.427
2.0, -126265.6526286188, -126098.03689694846, -110748.62459285553, -125564.34429458909, -88391.53807062365, -88518.27246168524, -134581.84267066035, 50720.93614589407, -0.182, -0.34400000000000003, 0.298, 192.0, 0.0, 0.0, 0.0, 0.0, 0.0, 0.0, 0.0, 0.0, 0.0, 1.6969585484319265E9, 0.0, 2023-10-10 14:22:28.431
3.0, -126180.93951713319, -125984.69120081559, -110629.64625711994, -125447.53407806566, -88266.59181911849, -88389.10173047803, -134459.1315936007, 50855.068964370366, -0.182, -0.34400000000000003, 0.298, 192.0, 0.0, 0.0, 0.0, 0.0, 0.0, 0.0, 0.0, 0.0, 0.0, 1.6969585484359143E9, 0.0, 2023-10-10 14:22:28.435
4.0, -126191.82481668293, -126041.26346603197, -110722.60716230955, -125495.52327341119, -88327.90265415939, -88443.55057997115, -134501.75637027697, 50781.62113209023, -0.182, -0.34400000000000003, 0.298, 192.0, 0.0, 0.0, 0.0, 0.0, 0.0, 0.0, 0.0, 0.0, 0.0, 1.6969585484399524E9, 0.0, 2023-10-10 14:22:28.439
5.0, -126284.38339047234, -126143.70151087064, -110829.29203859474, -125602.4987223743, -88437.94029211286, -88552.82825861315, -134609.0670954069, 50654.015022994885, -0.182, -0.34400000000000003, 0.298, 192.0, 0.0, 0.0, 0.0, 0.0, 0.0, 0.0, 0.0, 0.0, 0.0, 1.6969585484429271E9, 0.0, 2023-10-10 14:22:28.442
6.0, -126267.82074783096, -126112.27495816648, -110763.6896686184, -125566.87004171254, -88400.32230619459, -88521.37935416453, -134588.90582190824, 50673.729261604465, -0.182, -0.34400000000000003, 0.298, 192.0, 0.0, 0.0, 0.0, 0.0, 0.0, 0.0, 0.0, 0.0, 0.0, 1.6969585484479058E9, 0.0, 2023-10-10 14:22:28.447
7.0, -126188.49440675908, -126012.51912266244, -110654.18847253185, -125462.5097468507, -88283.15446175987, -88419.50010293724, -134484.9925619355, 50763.02448070342, -0.272, -0.518, 0.448, 192.0, 247.0, 128.0, 239.0, 208.0, 14.0, 0.0, 0.0, 0.0, 0.0, 1.6969585484519687E9, 0.0, 2023-10-10 14:22:28.451
8.0, -126179.26313629904, -126015.26838723045, -110676.6743274539, -125472.92565976689, -88279.30996171356, -88422.0705535496, -134487.9429922036, 50751.06629741983, -0.272, -0.518, 0.448, 192.0, 0.0, 0.0, 0.0, 0.0, 0.0, 0.0, 0.0, 0.0, 0.0, 1.6969585484560022E9, 0.0, 2023-10-10 14:22:28.456
9.0, -126254.56616336897, -126114.04074597845, -110789.59534044212, -125579.02939069622, -88374.86366926, -88523.54747337669, -134599.90288018025, 50651.712793315986, -0.272, -0.518, 0.448, 192.0, 0.0, 0.0, 0.0, 0.0, 0.0, 0.0, 0.0, 0.0, 0.0, 1.6969585484599323E9, 0.0, 2023-10-10 14:22:28.459
10.0, -126278.59428865842, -126127.02710950699, -110804.61571271607, -125591.00992572427, -88370.32626513556, -88540.57950265164, -134618.1866071447, 50644.001441478904, -0.272, -0.518, 0.448, 192.0, 0.0, 0.0, 0.0, 0.0, 0.0, 0.0, 0.0, 0.0, 0.0, 1.6969585484649496E9, 0.0, 2023-10-10 14:22:28.464
11.0, -126197.88213943031, -126021.90685533368, -110663.6656121809, -125474.93731676786, -88238.07099319351, -88424.66335590642, -134499.23062315353, 50761.66102429164, -0.272, -0.518, 0.448, 192.0, 0.0, 0.0, 0.0, 0.0, 0.0, 0.0, 0.0, 0.0, 0.0, 1.6969585484679246E9, 0.0, 2023-10-10 14:22:28.467
12.0, -126169.09309257187, -126011.64740462869, -110656.35659174403, -125453.92667697987, -88218.73673423968, -88403.83153007407, -134477.81765196534, 50764.36558537073, -0.272, -0.518, 0.448, 192.0, 0.0, 0.0, 0.0, 0.0, 0.0, 0.0, 0.0, 0.0, 0.0, 1.6969585484711518E9, 0.0, 2023-10-10 14:22:28.471
13.0, -126268.06661701997, -126134.2243712216, -110800.14536382501, -125582.51626283125, -88344.30883458958, -88532.8457990701, -134614.1185896538, 50610.27265909585, -0.272, -0.518, 0.448, 192.0, 0.0, 0.0, 0.0, 0.0, 0.0, 0.0, 0.0, 0.0, 0.0, 1.6969585484759665E9, 0.0, 2023-10-10 14:22:28.475
14.0, -126294.64284117734, -126152.39633946375, -110821.13365186854, -125608.15371372149, -88357.2057911403, -88558.93028484944, -134646.59567434737, 50576.72269066843, -0.272, -0.518, 0.448, 192.0, 0.0, 0.0, 0.0, 0.0, 0.0, 0.0, 0.0, 0.0, 0.0, 1.6969585484799676E9, 0.0, 2023-10-10 14:22:28.479
15.0, -126195.06581962894, -126031.02636707145, -110698.8249062091, -125478.2677266917, -88221.39659182985, -88434.09579206655, -134516.95555650658, 50710.22966029998, -0.272, -0.518, 0.448, 192.0, 0.0, 0.0, 0.0, 0.0, 0.0, 0.0, 0.0, 0.0, 0.0, 1.6969585484839873E9, 0.0, 2023-10-10 14:22:28.483
16.0, -126176.06683684193, -126007.62409062673, -110671.84635065155, -125447.28820887665, -88194.14981533884, -88402.53512889566, -134475.0460356529, 50740.29275659237, -0.272, -0.518, 0.448, 192.0, 0.0, 0.0, 0.0, 0.0, 0.0, 0.0, 0.0, 0.0, 0.0, 1.6969585484880211E9, 0.0, 2023-10-10 14:22:28.488
17.0, -126254.20853545768, -126108.58692033136, -110770.5516541662, -125555.31418982914, -88304.5897846925, -88508.10241795807, -134581.14976658224, 50616.464092309965, -0.316, -0.602, 0.518, 192.0, 246.0, 32.0, 237.0, 48.0, 16.0, 48.0, 0.0, 0.0, 0.0, 1.696958548491985E9, 0.0, 2023-10-10 14:22:28.491
18.0, -126296.96742260069, -126154.36329297583, -110807.07440460616, -125605.58326310913, -88349.65090151441, -88545.6980521319, -134639.06313646593, 50592.10069085368, -0.316, -0.602, 0.518, 192.0, 0.0, 0.0, 0.0, 0.0, 0.0, 0.0, 0.0, 0.0, 0.0, 1.696958548496068E9, 0.0, 2023-10-10 14:22:28.496
19.0, -126235.7459945376, -126069.29255357893, -110697.1261736305, -125509.29194799566, -88250.6773770663, -88442.85767589304, -134544.42585044217, 50715.05763710233, -0.316, -0.602, 0.518, 192.0, 0.0, 0.0, 0.0, 0.0, 0.0, 0.0, 0.0, 0.0, 0.0, 1.6969585484989853E9, 0.0, 2023-10-10 14:22:28.498
20.0, -126156.95609533264, -125993.72130557554, -110626.00292277371, -125427.39515631142, -88170.2110970272, -88363.17370690986, -134461.12089885725, 50784.97389375853, -0.316, -0.602, 0.518, 192.0, 0.0, 0.0, 0.0, 0.0, 0.0, 0.0, 0.0, 0.0, 0.0, 1.6969585485040188E9, 0.0, 2023-10-10 14:22:28.504
21.0, -126226.6935380332, -126086.16812064269, -110742.09788347458, -125529.45322149435, -88275.51016515616, -88465.70115872636, -134558.64155991573, 50662.21811320998, -0.316, -0.602, 0.518, 192.0, 0.0, 0.0, 0.0, 0.0, 0.0, 0.0, 0.0, 0.0, 0.0, 1.696958548508031E9, 0.0, 2023-10-10 14:22:28.508
22.0, -126295.22398653318, -126168.17667104921, -110838.4115503325, -125606.99142300981, -88362.79372725413, -88553.09647954661, -134639.89015101077, 50581.39420525959, -0.316, -0.602, 0.518, 192.0, 0.0, 0.0, 0.0, 0.0, 0.0, 0.0, 0.0, 0.0, 0.0, 1.6969585485142233E9, 0.0, 2023-10-10 14:22:28.514
23.0, -126246.81010804298, -126099.2662428935, -110745.60710735407, -125527.37450926001, -88287.06601703954, -88480.63212402251, -134558.9097808492, 50675.182124994055, -0.316, -0.602, 0.518, 192.0, 0.0, 0.0, 0.0, 0.0, 0.0, 0.0, 0.0, 0.0, 0.0, 1.696958548516189E9, 0.0, 2023-10-10 14:22:28.516
24.0, -126158.09603429986, -125998.52693063342, -110627.6569518634, -125418.74503120722, -88183.75625416712, -88369.4545471018, -134443.41831724864, 50794.42868166312, -0.316, -0.602, 0.518, 192.0, 0.0, 0.0, 0.0, 0.0, 0.0, 0.0, 0.0, 0.0, 0.0, 1.696958548519038E9, 0.0, 2023-10-10 14:22:28.519
25.0, -126203.55948252196, -126065.02337038796, -110718.15916516294, -125492.68460186537, -88260.48979288219, -88439.84019039157, -134507.59017557983, 50709.022666099394, -0.316, -0.602, 0.518, 192.0, 0.0, 0.0, 0.0, 0.0, 0.0, 0.0, 0.0, 0.0, 0.0, 1.69695854852312E9, 0.0, 2023-10-10 14:22:28.523
26.0, -126300.3648877579, -126178.14554907627, -110842.2113468899, -125611.97586202335, -88378.70816930631, -88557.29860750421, -134626.59086305986, 50579.18138255851, -0.316, -0.602, 0.518, 192.0, 0.0, 0.0, 0.0, 0.0, 0.0, 0.0, 0.0, 0.0, 0.0, 1.696958548527055E9, 0.0, 2023-10-10 14:22:28.527
27.0, -126254.23088720214, -126118.39933614724, -110747.8422817996, -125546.82052693612, -88308.97072660575, -88493.97611546233, -134567.13522280875, 50647.17538919156, -0.336, -0.648, 0.558, 192.0, 245.0, 128.0, 235.0, 192.0, 17.0, 112.0, 0.0, 0.0, 0.0, 1.6969585485320232E9, 0.0, 2023-10-10 14:22:28.532
28.0, -126178.79374966548, -126013.56965465184, -110633.89308856644, -125440.89560996242, -88196.65321071784, -88385.63721008744, -134456.44938426607, 50772.367509885735, -0.336, -0.648, 0.558, 192.0, 0.0, 0.0, 0.0, 0.0, 0.0, 0.0, 0.0, 0.0, 0.0, 1.696958548536337E9, 0.0, 2023-10-10 14:22:28.536
29.0, -126188.65086897028, -126050.94177138113, -110704.65871151195, -125473.64091558945, -88241.69197579527, -88425.49037045127, -134487.80888173688, 50725.9205849076, -0.336, -0.648, 0.558, 192.0, 0.0, 0.0, 0.0, 0.0, 0.0, 0.0, 0.0, 0.0, 0.0, 1.696958548540156E9, 0.0, 2023-10-10 14:22:28.540
30.0, -126268.4018931868, -126163.1251768023, -110839.88676546655, -125589.89233850151, -88362.97254120976, -88548.93905507792, -134607.9718599286, 50585.79749891729, -0.336, -0.648, 0.558, 192.0, 0.0, 0.0, 0.0, 0.0, 0.0, 0.0, 0.0, 0.0, 0.0, 1.6969585485440776E9, 0.0, 2023-10-10 14:22:28.544
31.0, -126266.81491933047, -126146.85310683884, -110773.25621524527, -125572.8379574821, -88339.59261650952, -88522.89927278749, -134594.9631446556, 50604.32709507074, -0.336, -0.648, 0.558, 192.0, 0.0, 0.0, 0.0, 0.0, 0.0, 0.0, 0.0, 0.0, 0.0, 1.6969585485480917E9, 0.0, 2023-10-10 14:22:28.548
32.0, -126140.70637711363, -126012.60852964027, -110626.98639952975, -125423.93063592084, -88192.67460020479, -88376.69651230532, -134450.0344336074, 50763.89619873717, -0.336, -0.648, 0.558, 192.0, 0.0, 0.0, 0.0, 0.0, 0.0, 0.0, 0.0, 0.0, 0.0, 1.6969585485510716E9, 0.0, 2023-10-10 14:22:28.551
33.0, -126145.28848472697, -126024.99139606851, -110653.56262368712, -125432.22313311377, -88204.05163813253, -88385.05606473162, -134451.7778696749, 50747.132390395695, -0.336, -0.648, 0.558, 192.0, 0.0, 0.0, 0.0, 0.0, 0.0, 0.0, 0.0, 0.0, 0.0, 1.6969585485550828E9, 0.0, 2023-10-10 14:22:28.555
34.0, -126256.8013378145, -126155.0785487984, -110809.57779998516, -125574.31317261615, -88341.89484618841, -88526.92258678944, -134591.27510682048, 50593.48649900991, -0.336, -0.648, 0.558, 192.0, 0.0, 0.0, 0.0, 0.0, 0.0, 0.0, 0.0, 0.0, 0.0, 1.6969585485602005E9, 0.0, 2023-10-10 14:22:28.560
35.0, -126266.4572914192, -126157.69370289966, -110810.09189010762, -125587.32188788915, -88344.24177935622, -88536.06445027166, -134605.75903722752, 50595.565211244255, -0.336, -0.648, 0.558, 192.0, 0.0, 0.0, 0.0, 0.0, 0.0, 0.0, 0.0, 0.0, 0.0, 1.6969585485642235E9, 0.0, 2023-10-10 14:22:28.564
36.0, -126174.23399379659, -126038.64831193071, -110664.82790289259, -125457.59236307054, -88215.20515861573, -88409.35241095453, -134477.28121009842, 50733.60958500023, -0.336, -0.648, 0.558, 192.0, 0.0, 0.0, 0.0, 0.0, 0.0, 0.0, 0.0, 0.0, 0.0, 1.6969585485680993E9, 0.0, 2023-10-10 14:22:28.568
37.0, -126150.09410978487, -126017.30239597589, -110648.55583292912, -125430.41264181289, -88197.34611479595, -88388.83350954457, -134453.27543655343, 50744.91956769462, -0.336, -0.648, 0.558, 192.0, 0.0, 0.0, 0.0, 0.0, 0.0, 0.0, 0.0, 0.0, 0.0, 1.696958548572146E9, 0.0, 2023-10-10 14:22:28.572
38.0, -126260.44467216071, -126130.49162989756, -110792.34460501012, -125559.9857044203, -88328.70731695979, -88506.3366301461, -134584.12254859478, 50619.906260956086, -0.34800000000000003, -0.67, 0.58, 192.0, 245.0, 32.0, 235.0, 16.0, 18.0, 32.0, 0.0, 0.0, 0.0, 1.6969585485751584E9, 0.0, 2023-10-10 14:22:28.575
39.0, -126317.68748971076, -126175.95507811966, -110837.3163148542, -125609.74068757781, -88378.50700360621, -88556.35983423708, -134632.71524104063, 50578.17555405803, -0.34800000000000003, -0.67, 0.58, 192.0, 0.0, 0.0, 0.0, 0.0, 0.0, 0.0, 0.0, 0.0, 0.0, 1.6969585485791504E9, 0.0, 2023-10-10 14:22:28.579
40.0, -126223.92192172074, -126063.77167269847, -110693.5722462621, -125483.36392442751, -88254.45482187925, -88435.43689673387, -134506.45023661258, 50706.27340153139, -0.34800000000000003, -0.67, 0.58, 192.0, 0.0, 0.0, 0.0, 0.0, 0.0, 0.0, 0.0, 0.0, 0.0, 1.696958548583135E9, 0.0, 2023-10-10 14:22:28.583
41.0, -126171.66354318423, -126015.9389395641, -110662.45861798033, -125429.96560692378, -88206.10799862242, -88386.44187288784, -134446.01111960545, 50746.7300589955, -0.34800000000000003, -0.67, 0.58, 192.0, 0.0, 0.0, 0.0, 0.0, 0.0, 0.0, 0.0, 0.0, 0.0, 1.6969585485871413E9, 0.0, 2023-10-10 14:22:28.587
42.0, -126261.91988729476, -126129.8210775639, -110777.3018809917, -125555.87298344052, -88333.2000175953, -88498.20059516438, -134569.43745248765, 50614.76535973136, -0.34800000000000003, -0.67, 0.58, 192.0, 0.0, 0.0, 0.0, 0.0, 0.0, 0.0, 0.0, 0.0, 0.0, 1.696958548592116E9, 0.0, 2023-10-10 14:22:28.592
43.0, -126312.99362337514, -126185.52162474653, -110826.07338739317, -125620.55893189418, -88392.09686423503, -88552.29181674622, -134636.89501725376, 50565.41270797404, -0.34800000000000003, -0.67, 0.58, 192.0, 0.0, 0.0, 0.0, 0.0, 0.0, 0.0, 0.0, 0.0, 0.0, 1.6969585485961547E9, 0.0, 2023-10-10 14:22:28.596
44.0, -126228.10169793389, -126079.32848683937, -110699.33899633159, -125508.375526473, -88270.0339877646, -88436.53213221219, -134524.5551496214, 50701.87010787369, -0.34800000000000003, -0.67, 0.58, 192.0, 0.0, 0.0, 0.0, 0.0, 0.0, 0.0, 0.0, 0.0, 0.0, 1.6969585485991957E9, 0.0, 2023-10-10 14:22:28.599
45.0, -126152.5751534194, -125994.70478233157, -110613.32948366756, -125413.71588870477, -88174.43557672926, -88347.16985787987, -134432.19774153206, 50794.3392746853, -0.34800000000000003, -0.67, 0.58, 192.0, 0.0, 0.0, 0.0, 0.0, 0.0, 0.0, 0.0, 0.0, 0.0, 1.6969585486032152E9, 0.0, 2023-10-10 14:22:28.603
46.0, -126223.5866455539, -126090.23613813355, -110738.81217703965, -125507.54851192815, -88280.20403149177, -88447.46213525083, -134527.48322814505, 50682.737014619954, -0.34800000000000003, -0.67, 0.58, 192.0, 0.0, 0.0, 0.0, 0.0, 0.0, 0.0, 0.0, 0.0, 0.0, 1.6969585486071908E9, 0.0, 2023-10-10 14:22:28.607
47.0, -126296.38627724485, -126169.40601699425, -110825.7604629708, -125596.77667579374, -88369.4545471018, -88536.89146481651, -134618.9242147117, 50594.78290018832, -0.34800000000000003, -0.67, 0.58, 192.0, 0.0, 0.0, 0.0, 0.0, 0.0, 0.0, 0.0, 0.0, 0.0, 1.6969585486111732E9, 0.0, 2023-10-10 14:22:28.611
48.0, -126248.48648887713, -126111.82792327738, -110738.16397645045, -125526.41338424843, -88296.96783983325, -88474.95478093086, -134555.33350173634, 50666.397889423126, -0.36, -0.678, 0.586, 192.0, 244.0, 192.0, 234.0, 208.0, 18.0, 80.0, 0.0, 0.0, 0.0, 1.6969585486151717E9, 0.0, 2023-10-10 14:22:28.615
49.0, -126166.65675242625, -126021.68333788913, -110635.03302753366, -125422.54482776462, -88194.70860895021, -88371.24268665824, -134447.24046555048, 50769.37237612872, -0.36, -0.678, 0.586, 192.0, 0.0, 0.0, 0.0, 0.0, 0.0, 0.0, 0.0, 0.0, 0.0, 1.696958548620183E9, 0.0, 2023-10-10 14:22:28.620
50.0, -126212.18725588171, -126086.30223110941, -110722.76362452074, -125490.94116579786, -88272.60443837696, -88442.18712355937, -134507.23254766854, 50691.677712402074, -0.36, -0.678, 0.586, 192.0, 0.0, 0.0, 0.0, 0.0, 0.0, 0.0, 0.0, 0.0, 0.0, 1.6969585486242821E9, 0.0, 2023-10-10 14:22:28.624
51.0, -126284.85277710592, -126169.54012746098, -110822.54181176923, -125584.1926436654, -88369.72276803527, -88537.62907238354, -134600.72989472508, 50600.951981657985, -0.36, -0.678, 0.586, 192.0, 0.0, 0.0, 0.0, 0.0, 0.0, 0.0, 0.0, 0.0, 0.0, 1.6969585486271863E9, 0.0, 2023-10-10 14:22:28.627
52.0, -126254.81203255798, -126119.24870243654, -110749.45160740038, -125534.14708782997, -88318.31375578807, -88476.631161765, -134553.1206790353, 50668.968340035484, -0.36, -0.678, 0.586, 192.0, 0.0, 0.0, 0.0, 0.0, 0.0, 0.0, 0.0, 0.0, 0.0, 1.6969585486311944E9, 0.0, 2023-10-10 14:22:28.631
53.0, -126175.61980195282, -126021.1468960222, -110638.65401013542, -125438.4592698168, -88217.44033306127, -88366.3029511336, -134454.3259685428, 50783.85630653576, -0.36, -0.678, 0.586, 192.0, 0.0, 0.0, 0.0, 0.0, 0.0, 0.0, 0.0, 0.0, 0.0, 1.696958548635302E9, 0.0, 2023-10-10 14:22:28.635
54.0, -126200.72081097613, -126054.22747781605, -110684.56449324662, -125478.33478192506, -88260.60155160446, -88394.13087298047, -134484.67963751312, 50741.03036415939, -0.36, -0.678, 0.586, 192.0, 0.0, 0.0, 0.0, 0.0, 0.0, 0.0, 0.0, 0.0, 0.0, 1.696958548639222E9, 0.0, 2023-10-10 14:22:28.639
55.0, -126309.41734426229, -126175.75391241956, -110819.43491928994, -125594.54150134821, -88393.0132857577, -88522.98867976532, -134603.47915929309, 50608.35040907269, -0.36, -0.678, 0.586, 192.0, 0.0, 0.0, 0.0, 0.0, 0.0, 0.0, 0.0, 0.0, 0.0, 1.6969585486432805E9, 0.0, 2023-10-10 14:22:28.643
56.0, -126310.7137454407, -126154.65386565375, -110781.48165720483, -125573.86613772705, -88370.88505874695, -88501.75452253276, -134589.79989168645, 50638.54761583181, -0.36, -0.678, 0.586, 192.0, 0.0, 0.0, 0.0, 0.0, 0.0, 0.0, 0.0, 0.0, 0.0, 1.696958548647303E9, 0.0, 2023-10-10 14:22:28.647
57.0, -126192.1824445942, -126027.67360540315, -110628.48396640825, -125436.62642677146, -88232.23718789067, -88361.11734641998, -134456.67290171064, 50786.51616412594, -0.36, -0.678, 0.586, 192.0, 0.0, 0.0, 0.0, 0.0, 0.0, 0.0, 0.0, 0.0, 0.0, 1.6969585486523404E9, 0.0, 2023-10-10 14:22:28.652
58.0, -126191.84716842738, -126050.78530916994, -110667.91244362741, -125452.5632205681, -88257.29349342508, -88384.36316065349, -134469.5922100058, 50754.530817810395, -0.362, -0.682, 0.592, 192.0, 244.0, 176.0, 234.0, 176.0, 18.0, 128.0, 0.0, 0.0, 0.0, 1.6969585486553345E9, 0.0, 2023-10-10 14:22:28.655
59.0, -126299.80609414651, -126174.72573217461, -110812.7070442089, -125589.84763501259, -88390.46518688979, -88520.52998787523, -134602.65214474825, 50605.288220082315, -0.362, -0.682, 0.592, 192.0, 0.0, 0.0, 0.0, 0.0, 0.0, 0.0, 0.0, 0.0, 0.0, 1.6969585486592748E9, 0.0, 2023-10-10 14:22:28.659
60.0, -126329.0645276385, -126198.4409330417, -110836.13167239806, -125606.18676020943, -88401.08226550606, -88537.02557528325, -134617.73957225558, 50597.509813011864, -0.362, -0.682, 0.592, 192.0, 0.0, 0.0, 0.0, 0.0, 0.0, 0.0, 0.0, 0.0, 0.0, 1.696958548663314E9, 0.0, 2023-10-10 14:22:28.663
61.0, -126231.40975611327, -126080.1555013842, -110693.5275427732, -125473.4173981449, -88274.05730176656, -88406.62549813099, -134487.92064045914, 50736.71647747952, -0.362, -0.682, 0.592, 192.0, 0.0, 0.0, 0.0, 0.0, 0.0, 0.0, 0.0, 0.0, 0.0, 1.6969585486673965E9, 0.0, 2023-10-10 14:22:28.667
62.0, -126194.283508573, -126030.13229729322, -110633.98249554426, -125440.42622332886, -88250.63267357739, -88363.7548522657, -134454.6388929652, 50766.489001093985, -0.362, -0.682, 0.592, 192.0, 0.0, 0.0, 0.0, 0.0, 0.0, 0.0, 0.0, 0.0, 0.0, 1.696958548671294E9, 0.0, 2023-10-10 14:22:28.671
63.0, -126290.306602753, -126146.04844403845, -110782.33102349413, -125561.34916083208, -88384.74314030923, -88487.82938573712, -134571.56086821092, 50635.93246173054, -0.362, -0.682, 0.592, 192.0, 0.0, 0.0, 0.0, 0.0, 0.0, 0.0, 0.0, 0.0, 0.0, 1.6969585486753092E9, 0.0, 2023-10-10 14:22:28.675
64.0, -126342.40851907832, -126208.38745932431, -110857.92462324198, -125606.4996846318, -88429.84896062005, -88540.66890962946, -134615.30323210993, 50594.58173448822, -0.362, -0.682, 0.592, 192.0, 0.0, 0.0, 0.0, 0.0, 0.0, 0.0, 0.0, 0.0, 0.0, 1.6969585486803343E9, 0.0, 2023-10-10 14:22:28.680
65.0, -126287.89261435183, -126129.75402233054, -110731.86078451405, -125507.66027065043, -88318.80549416608, -88438.45438223534, -134513.71455356057, 50709.33559052177, -0.362, -0.682, 0.592, 192.0, 0.0, 0.0, 0.0, 0.0, 0.0, 0.0, 0.0, 0.0, 0.0, 1.6969585486833005E9, 0.0, 2023-10-10 14:22:28.683
66.0, -126220.16682865225, -126051.2993992924, -110645.62775440548, -125433.16190638089, -88246.27408340861, -88360.26798013068, -134438.25506427945, 50781.39761464568, -0.362, -0.682, 0.592, 192.0, 0.0, 0.0, 0.0, 0.0, 0.0, 0.0, 0.0, 0.0, 0.0, 1.6969585486873398E9, 0.0, 2023-10-10 14:22:28.687
67.0, -126320.83908567895, -126162.78990063547, -110785.95200609589, -125556.43177705191, -88374.93072449336, -88480.67682751142, -134561.05554831692, 50652.02571773836, -0.362, -0.682, 0.592, 192.0, 0.0, 0.0, 0.0, 0.0, 0.0, 0.0, 0.0, 0.0, 0.0, 1.6969585486912959E9, 0.0, 2023-10-10 14:22:28.691
68.0, -126339.1228126434, -126174.05517984096, -110799.67597719145, -125604.5997863531, -88415.87912033548, -88525.00033676629, -134620.9805752016, 50599.00737989037, -0.362, -0.682, 0.592, 192.0, 0.0, 0.0, 0.0, 0.0, 0.0, 0.0, 0.0, 0.0, 0.0, 1.696958548695286E9, 0.0, 2023-10-10 14:22:28.695
69.0, -126227.96758746715, -126066.52093726647, -110687.71608921482, -125495.23270073328, -88307.0484765826, -88425.71388789582, -134526.4550479001, 50711.973096367496, -0.362, -0.684, 0.588, 192.0, 244.0, 176.0, 234.0, 160.0, 18.0, 96.0, 0.0, 0.0, 0.0, 1.69695854869929E9, 0.0, 2023-10-10 14:22:28.699
70.0, -126166.76851114852, -125996.02353525443, -110612.43541388934, -125408.84320841351, -88225.7775337431, -88337.35744206399, -134434.20939853304, 50806.07394052434, -0.362, -0.684, 0.588, 192.0, 0.0, 0.0, 0.0, 0.0, 0.0, 0.0, 0.0, 0.0, 0.0, 1.6969585487033236E9, 0.0, 2023-10-10 14:22:28.703
71.0, -126241.1998201847, -126080.17785312867, -110713.57705754961, -125494.09276176606, -88319.78897092212, -88425.08803905107, -134514.67567857215, 50721.047904616345, -0.362, -0.684, 0.588, 192.0, 0.0, 0.0, 0.0, 0.0, 0.0, 0.0, 0.0, 0.0, 0.0, 1.6969585487084E9, 0.0, 2023-10-10 14:22:28.708
72.0, -126314.31237629801, -126176.51387173103, -110837.27161136529, -125600.17414095094, -88432.44176297686, -88539.28310147324, -134628.3342991274, 50609.758568973375, -0.362, -0.684, 0.588, 192.0, 0.0, 0.0, 0.0, 0.0, 0.0, 0.0, 0.0, 0.0, 0.0, 1.696958548711323E9, 0.0, 2023-10-10 14:22:28.711
73.0, -126273.98982930063, -126117.08058322438, -110741.60614509656, -125528.55915171614, -88359.26215163019, -88465.2317720928, -134560.3626442388, 50689.57664842327, -0.362, -0.684, 0.588, 192.0, 0.0, 0.0, 0.0, 0.0, 0.0, 0.0, 0.0, 0.0, 0.0, 1.6969585487154624E9, 0.0, 2023-10-10 14:22:28.715
74.0, -126175.53039497501, -126001.3432504348, -110621.17494597138, -125414.94523464981, -88247.61518807593, -88347.66159625788, -134447.95572137306, 50808.644391136695, -0.362, -0.684, 0.588, 192.0, 0.0, 0.0, 0.0, 0.0, 0.0, 0.0, 0.0, 0.0, 0.0, 1.696958548719324E9, 0.0, 2023-10-10 14:22:28.719
75.0, -126213.17073263774, -126059.3013238074, -110697.88613294199, -125471.89747952194, -88315.89976738689, -88409.37476269898, -134500.07998944283, 50739.577500769796, -0.362, -0.684, 0.588, 192.0, 0.0, 0.0, 0.0, 0.0, 0.0, 0.0, 0.0, 0.0, 0.0, 1.696958548723372E9, 0.0, 2023-10-10 14:22:28.723
76.0, -126316.79341993254, -126178.48082524311, -110818.13851811153, -125588.50653034527, -88444.8246294051, -88528.42015366795, -134616.0855431659, 50609.02096140635, -0.362, -0.684, 0.588, 192.0, 0.0, 0.0, 0.0, 0.0, 0.0, 0.0, 0.0, 0.0, 0.0, 1.6969585487274036E9, 0.0, 2023-10-10 14:22:28.727
77.0, -126306.57867271647, -126155.01149356503, -110779.93938683742, -125551.67085548292, -88417.82372210309, -88499.25112715378, -134588.32467655238, 50645.72252580196, -0.362, -0.684, 0.588, 192.0, 0.0, 0.0, 0.0, 0.0, 0.0, 0.0, 0.0, 0.0, 0.0, 1.6969585487313435E9, 0.0, 2023-10-10 14:22:28.731
78.0, -126194.90935741775, -126029.1488205372, -110634.74245485575, -125418.27564457366, -88285.1884705053, -88360.22327664177, -134453.25308480897, 50789.846574049785, -0.362, -0.684, 0.588, 192.0, 0.0, 0.0, 0.0, 0.0, 0.0, 0.0, 0.0, 0.0, 0.0, 1.696958548735444E9, 0.0, 2023-10-10 14:22:28.735
79.0, -126214.15420939378, -126060.24009707452, -110681.14467634496, -125447.24350538773, -88320.70539244478, -88384.09493972003, -134471.91679142913, 50755.98368119999, -0.36, -0.6880000000000001, 0.594, 192.0, 244.0, 192.0, 234.0, 128.0, 18.0, 144.0, 0.0, 0.0, 0.0, 1.6969585487383587E9, 0.0, 2023-10-10 14:22:28.738
80.0, -126319.09564961144, -126181.8335869114, -110813.82463143166, -125575.60957379456, -88446.2774927947, -88514.0926854721, -134597.1089121233, 50616.64290626561, -0.36, -0.6880000000000001, 0.594, 192.0, 0.0, 0.0, 0.0, 0.0, 0.0, 0.0, 0.0, 0.0, 0.0, 1.6969585487423692E9, 0.0, 2023-10-10 14:22:28.742
81.0, -126314.78176293157, -126172.82583389591, -110805.86741040557, -125563.42787306642, -88428.66431816392, -88505.80018827919, -134594.3596475553, 50627.796426748806, -0.36, -0.6880000000000001, 0.594, 192.0, 0.0, 0.0, 0.0, 0.0, 0.0, 0.0, 0.0, 0.0, 0.0, 1.696958548747542E9, 0.0, 2023-10-10 14:22:28.747
82.0, -126211.91903494824, -126046.78434691243, -110662.5703767026, -125428.04335690063, -88292.3857322199, -88372.67319830337, -134464.8312884368, 50766.01961446043, -0.36, -0.6880000000000001, 0.594, 192.0, 0.0, 0.0, 0.0, 0.0, 0.0, 0.0, 0.0, 0.0, 0.0, 1.6969585487514553E9, 0.0, 2023-10-10 14:22:28.751
83.0, -126198.2397673416, -126040.01176834248, -110640.82212934758, -125422.14249636442, -88291.22344150823, -88358.7033580188, -134457.34345404428, 50771.56284708534, -0.36, -0.6880000000000001, 0.594, 192.0, 0.0, 0.0, 0.0, 0.0, 0.0, 0.0, 0.0, 0.0, 0.0, 1.6969585487553985E9, 0.0, 2023-10-10 14:22:28.755
84.0, -126300.0072598466, -126160.42061572321, -110785.81789562917, -125559.09163464209, -88425.51272219572, -88483.35903684606, -134593.13030161028, 50634.54665357431, -0.36, -0.6880000000000001, 0.594, 192.0, 0.0, 0.0, 0.0, 0.0, 0.0, 0.0, 0.0, 0.0, 0.0, 1.6969585487594E9, 0.0, 2023-10-10 14:22:28.759
85.0, -126336.55236203104, -126192.31655506094, -110828.80030021672, -125596.32964090463, -88454.0782516096, -88524.77681932173, -134632.1787991737, 50601.89075492511, -0.36, -0.6880000000000001, 0.594, 192.0, 0.0, 0.0, 0.0, 0.0, 0.0, 0.0, 0.0, 0.0, 0.0, 1.6969585487634113E9, 0.0, 2023-10-10 14:22:28.763
86.0, -126246.25131443159, -126079.93198393965, -110667.66657443841, -125478.51359588071, -88329.06494487106, -88399.9646782833, -134522.9458240206, 50737.02940190189, -0.36, -0.6880000000000001, 0.594, 192.0, 0.0, 0.0, 0.0, 0.0, 0.0, 0.0, 0.0, 0.0, 0.0, 1.6969585487664194E9, 0.0, 2023-10-10 14:22:28.766
87.0, -126192.47301727213, -126027.74066063651, -110608.72502430977, -125420.30965331908, -88278.77351984663, -88337.02216589716, -134462.55141050238, 50796.10506249727, -0.36, -0.6880000000000001, 0.594, 192.0, 0.0, 0.0, 0.0, 0.0, 0.0, 0.0, 0.0, 0.0, 0.0, 1.696958548771438E9, 0.0, 2023-10-10 14:22:28.771
88.0, -126281.54471892653, -126140.99694979156, -110756.47005515934, -125539.26563731024, -88407.00547778672, -88460.26968482372, -134573.46076648962, 50664.22977021096, -0.36, -0.6880000000000001, 0.594, 192.0, 0.0, 0.0, 0.0, 0.0, 0.0, 0.0, 0.0, 0.0, 0.0, 1.696958548775411E9, 0.0, 2023-10-10 14:22:28.775
89.0, -126328.95276891624, -126189.030848626, -110811.74591919732, -125591.50166410228, -88455.03937662118, -88511.05284822617, -134626.6802700377, 50620.33094410074, -0.364, -0.6900000000000001, 0.598, 192.0, 244.0, 160.0, 234.0, 112.0, 18.0, 176.0, 0.0, 0.0, 0.0, 1.6969585487799857E9, 0.0, 2023-10-10 14:22:28.779
90.0, -126263.48450940664, -126096.33816436985, -110691.6723479834, -125496.90908156743, -88354.34476785002, -88414.13568426797, -134539.0614317729, 50733.96721291151, -0.364, -0.6900000000000001, 0.598, 192.0, 0.0, 0.0, 0.0, 0.0, 0.0, 0.0, 0.0, 0.0, 0.0, 1.6969585487834396E9, 0.0, 2023-10-10 14:22:28.783
91.0, -126206.06287790096, -126037.7989456414, -110627.12050999649, -125428.87037144548, -88297.30311600008, -88349.98617768123, -134470.3298175728, 50798.56375438735, -0.364, -0.6900000000000001, 0.598, 192.0, 0.0, 0.0, 0.0, 0.0, 0.0, 0.0, 0.0, 0.0, 0.0, 1.6969585487874901E9, 0.0, 2023-10-10 14:22:28.787
92.0, -126270.9052885658, -126126.69183334016, -110741.02499974072, -125521.71951791282, -88396.1648817259, -88449.36203352953, -134561.9719698396, 50692.08004380227, -0.364, -0.6900000000000001, 0.598, 192.0, 0.0, 0.0, 0.0, 0.0, 0.0, 0.0, 0.0, 0.0, 0.0, 1.6969585487914407E9, 0.0, 2023-10-10 14:22:28.791
93.0, -126336.23943760866, -126198.2397673416, -110822.05007339122, -125593.91565250346, -88469.4786035393, -88526.47555190034, -134640.56070334444, 50621.76145574587, -0.364, -0.6900000000000001, 0.598, 192.0, 0.0, 0.0, 0.0, 0.0, 0.0, 0.0, 0.0, 0.0, 0.0, 1.6969585487944417E9, 0.0, 2023-10-10 14:22:28.794
94.0, -126281.45531194871, -126122.04267049345, -110719.74613901928, -125514.11992479801, -88385.10076822052, -88444.73522242728, -134571.69497867764, 50715.90700339163, -0.364, -0.6900000000000001, 0.598, 192.0, 0.0, 0.0, 0.0, 0.0, 0.0, 0.0, 0.0, 0.0, 0.0, 1.6969585487984748E9, 0.0, 2023-10-10 14:22:28.798
95.0, -126199.37970630881, -126032.68039616113, -110624.99709427323, -125422.27660683116, -88293.07863629803, -88352.89190446043, -134478.55525953238, 50813.405312705676, -0.364, -0.6900000000000001, 0.598, 192.0, 0.0, 0.0, 0.0, 0.0, 0.0, 0.0, 0.0, 0.0, 0.0, 1.6969585488034806E9, 0.0, 2023-10-10 14:22:28.803
96.0, -126250.20757320018, -126103.55777782892, -110737.44872062787, -125498.58546240158, -88356.13290740644, -88433.04526007715, -134551.53370517894, 50730.279175076386, -0.364, -0.6900000000000001, 0.598, 192.0, 0.0, 0.0, 0.0, 0.0, 0.0, 0.0, 0.0, 0.0, 0.0, 1.6969585488074698E9, 0.0, 2023-10-10 14:22:28.807
97.0, -126335.90416144182, -126194.19410159519, -110822.27359083577, -125599.54829210619, -88388.54293686664, -88526.36379317807, -134656.27397969653, 50634.25608089639, -0.364, -0.6900000000000001, 0.598, 192.0, 0.0, 0.0, 0.0, 0.0, 0.0, 0.0, 0.0, 0.0, 0.0, 1.6969585488114524E9, 0.0, 2023-10-10 14:22:28.811
98.0, -126297.95089935671, -126136.37013868931, -110727.05515945615, -125541.21023907785, -88268.5364208861, -88457.76628944473, -134609.49177855157, 50705.51344221991, -0.364, -0.6900000000000001, 0.598, 192.0, 0.0, 0.0, 0.0, 0.0, 0.0, 0.0, 0.0, 0.0, 0.0, 1.6969585488154802E9, 0.0, 2023-10-10 14:22:28.815
99.0, -126205.45938080066, -126030.22170427105, -110605.75224229721, -125428.73626097874, -88116.32104114545, -88341.33605257703, -134499.18591966463, 50823.128321543736, -0.368, -0.6880000000000001, 0.598, 192.0, 244.0, 128.0, 234.0, 128.0, 18.0, 176.0, 0.0, 0.0, 0.0, 1.696958548819483E9, 0.0, 2023-10-10 14:22:28.819
100.0, -126244.26200917507, -126083.93294619715, -110671.7792954182, -125488.21425297431, -88143.54546589202, -88392.65565784642, -134541.67658587417, 50757.90593122315, -0.368, -0.6880000000000001, 0.598, 192.0, 0.0, 0.0, 0.0, 0.0, 0.0, 0.0, 0.0, 0.0, 0.0, 1.696958548822502E9, 0.0, 2023-10-10 14:22:28.822
101.0, -126343.1237749009, -126197.81508419695, -110812.48352676435, -125601.64935608499, -88235.7240600257, -88515.63495583952, -134648.54027611497, 50629.62926979414, -0.368, -0.6880000000000001, 0.598, 192.0, 0.0, 0.0, 0.0, 0.0, 0.0, 0.0, 0.0, 0.0, 0.0, 1.6969585488265183E9, 0.0, 2023-10-10 14:22:28.826
102.0, -126317.62043447739, -126161.15822329024, -110768.6964593764, -125563.07024515513, -88169.562896438, -88478.01696992123, -134613.8727204648, 50671.695252859034, -0.368, -0.6880000000000001, 0.598, 192.0, 0.0, 0.0, 0.0, 0.0, 0.0, 0.0, 0.0, 0.0, 0.0, 1.6969585488315995E9, 0.0, 2023-10-10 14:22:28.831
103.0, -126213.68482276022, -126037.35191075229, -110619.54326862613, -125429.27270284567, -88011.80428407244, -88343.63828225592, -134481.48333805602, 50810.36547545975, -0.368, -0.6880000000000001, 0.598, 192.0, 0.0, 0.0, 0.0, 0.0, 0.0, 0.0, 0.0, 0.0, 0.0, 1.6969585488355138E9, 0.0, 2023-10-10 14:22:28.835
104.0, -126245.02196848656, -126076.10983563779, -110675.35557453103, -125470.17639519888, -88038.17934252971, -88386.41952114338, -134519.25778618548, 50754.73198351049, -0.368, -0.6880000000000001, 0.598, 192.0, 0.0, 0.0, 0.0, 0.0, 0.0, 0.0, 0.0, 0.0, 0.0, 1.6969585488395755E9, 0.0, 2023-10-10 14:22:28.839
105.0, -126333.04313815155, -126188.69557245918, -110809.93542789645, -125595.10029495959, -88143.47841065866, -88511.7457523043, -134646.43921213617, 50615.86059520967, -0.368, -0.6880000000000001, 0.598, 192.0, 0.0, 0.0, 0.0, 0.0, 0.0, 0.0, 0.0, 0.0, 0.0, 1.696958548842507E9, 0.0, 2023-10-10 14:22:28.842
106.0, -126331.8137922065, -126183.82289216793, -110781.99574732731, -125579.61053605206, -88111.11308468737, -88502.9391649889, -134641.00773823354, 50633.809046007285, -0.368, -0.6880000000000001, 0.598, 192.0, 0.0, 0.0, 0.0, 0.0, 0.0, 0.0, 0.0, 0.0, 0.0, 1.6969585488465316E9, 0.0, 2023-10-10 14:22:28.846
107.0, -126231.16388692426, -126063.14582385372, -110644.91249858291, -125445.72358676477, -87957.1095653903, -88370.95211398031, -134514.38510589424, 50778.1342599552, -0.368, -0.6880000000000001, 0.598, 192.0, 0.0, 0.0, 0.0, 0.0, 0.0, 0.0, 0.0, 0.0, 0.0, 1.696958548850535E9, 0.0, 2023-10-10 14:22:28.850
108.0, -126213.39425008229, -126046.18084981214, -110635.12243451149, -125439.39804308391, -87929.01342260998, -88357.33990160703, -134503.03041971094, 50776.4355273766, -0.368, -0.6880000000000001, 0.598, 192.0, 0.0, 0.0, 0.0, 0.0, 0.0, 0.0, 0.0, 0.0, 0.0, 1.6969585488545437E9, 0.0, 2023-10-10 14:22:28.854
109.0, -126304.3658500154, -126159.34773198936, -110774.68672689042, -125561.21505036534, -88039.14046754128, -88480.74388274478, -134621.5840723019, 50638.21233966498, -0.368, -0.6880000000000001, 0.598, 192.0, 0.0, 0.0, 0.0, 0.0, 0.0, 0.0, 0.0, 0.0, 0.0, 1.696958548859546E9, 0.0, 2023-10-10 14:22:28.859
110.0, -126345.62717027988, -126198.0833051304, -110814.6069424876, -125591.30049840218, -88052.77503165901, -88516.66313608446, -134656.11751748534, 50612.35137133019, -0.362, -0.6940000000000001, 0.602, 192.0, 244.0, 176.0, 234.0, 80.0, 18.0, 208.0, 0.0, 0.0, 0.0, 1.6969585488636036E9, 0.0, 2023-10-10 14:22:28.863
111.0, -126254.9014395358, -126091.13020791176, -110678.59657747706, -125471.7633690552, -87915.75883814799, -88395.9637160258, -134543.68824287513, 50739.10811413624, -0.362, -0.6940000000000001, 0.602, 192.0, 0.0, 0.0, 0.0, 0.0, 0.0, 0.0, 0.0, 0.0, 0.0, 1.6969585488675804E9, 0.0, 2023-10-10 14:22:28.867
112.0, -126198.15036036377, -126042.76103291048, -110642.47615843728, -125429.96560692378, -87866.74146255749, -88350.50026780371, -134501.24228015452, 50774.91560875364, -0.362, -0.6940000000000001, 0.602, 192.0, 0.0, 0.0, 0.0, 0.0, 0.0, 0.0, 0.0, 0.0, 0.0, 1.6969585488705523E9, 0.0, 2023-10-10 14:22:28.870
113.0, -126290.64187891984, -126143.00860679253, -110766.21541574186, -125546.77582344721, -87979.05897844542, -88469.50095528376, -134615.4149908322, 50639.91107224358, -0.362, -0.6940000000000001, 0.602, 192.0, 0.0, 0.0, 0.0, 0.0, 0.0, 0.0, 0.0, 0.0, 0.0, 1.696958548874558E9, 0.0, 2023-10-10 14:22:28.874
114.0, -126361.00517046514, -126212.09784890388, -110819.85960243459, -125613.2499114573, -88037.35232798486, -88536.69029911641, -134680.3915119638, 50576.81209764625, -0.362, -0.6940000000000001, 0.602, 192.0, 0.0, 0.0, 0.0, 0.0, 0.0, 0.0, 0.0, 0.0, 0.0, 1.6969585488785625E9, 0.0, 2023-10-10 14:22:28.878
115.0, -126292.69823940973, -126126.78124031799, -110716.05810118414, -125502.89934908145, -87919.8492073833, -88431.368879243, -134571.06912983287, 50698.383235738664, -0.362, -0.6940000000000001, 0.602, 192.0, 0.0, 0.0, 0.0, 0.0, 0.0, 0.0, 0.0, 0.0, 0.0, 1.6969585488825955E9, 0.0, 2023-10-10 14:22:28.882
116.0, -126242.8985527633, -126077.56269902739, -110666.3254697711, -125436.46996456028, -87847.76483151494, -88366.81704125609, -134493.82150099534, 50763.560922570345, -0.362, -0.6940000000000001, 0.602, 192.0, 0.0, 0.0, 0.0, 0.0, 0.0, 0.0, 0.0, 0.0, 0.0, 1.696958548886608E9, 0.0, 2023-10-10 14:22:28.886
117.0, -126284.83042536145, -126151.05523479644, -110771.4457239444, -125526.41338424843, -87935.42837326866, -88460.2249813348, -134586.15655734023, 50657.434839896545, -0.362, -0.6940000000000001, 0.602, 192.0, 0.0, 0.0, 0.0, 0.0, 0.0, 0.0, 0.0, 0.0, 0.0, 1.6969585488915844E9, 0.0, 2023-10-10 14:22:28.891
118.0, -126348.75641450363, -126214.26596811604, -110835.0140851753, -125607.90784453248, -88009.61381311582, -88536.28796771621, -134672.1884217487, 50577.72851916892, -0.362, -0.6940000000000001, 0.602, 192.0, 0.0, 0.0, 0.0, 0.0, 0.0, 0.0, 0.0, 0.0, 0.0, 1.6969585488956156E9, 0.0, 2023-10-10 14:22:28.895
119.0, -126293.97228884368, -126131.2739409535, -110715.81223199514, -125525.02757609221, -87914.17186429165, -88438.74495491326, -134588.79406318595, 50679.07132852928, -0.362, -0.6940000000000001, 0.602, 192.0, 0.0, 0.0, 0.0, 0.0, 0.0, 0.0, 0.0, 0.0, 0.0, 1.6969585488986151E9, 0.0, 2023-10-10 14:22:28.898
120.0, -126200.45259004267, -126032.03219557193, -110599.27023640517, -125413.98410963823, -87806.41410427263, -88325.95805239178, -134478.86818395474, 50783.61043734675, -0.362, -0.6900000000000001, 0.596, 192.0, 244.0, 176.0, 234.0, 112.0, 18.0, 160.0, 0.0, 0.0, 0.0, 1.6969585489026725E9, 0.0, 2023-10-10 14:22:28.902
121.0, -126257.6507041038, -126113.54900760044, -110708.32439760261, -125493.28809896567, -87897.497462928, -88411.54288191115, -134554.75235638052, 50681.50766867491, -0.362, -0.6900000000000001, 0.596, 192.0, 0.0, 0.0, 0.0, 0.0, 0.0, 0.0, 0.0, 0.0, 0.0, 1.6969585489066172E9, 0.0, 2023-10-10 14:22:28.906
122.0, -126355.35017911794, -126225.1959711547, -110843.82067249068, -125604.15275146399, -88013.86064456233, -88533.82927582614, -134669.61797113635, 50559.9365305825, -0.362, -0.6900000000000001, 0.596, 192.0, 0.0, 0.0, 0.0, 0.0, 0.0, 0.0, 0.0, 0.0, 0.0, 1.6969585489106226E9, 0.0, 2023-10-10 14:22:28.910
123.0, -126309.73026868467, -126159.54889768946, -110747.52935737722, -125545.32296005762, -87948.9064751752, -88469.4786035393, -134616.19730188814, 50624.82364473625, -0.362, -0.6900000000000001, 0.596, 192.0, 0.0, 0.0, 0.0, 0.0, 0.0, 0.0, 0.0, 0.0, 0.0, 1.6969585489156036E9, 0.0, 2023-10-10 14:22:28.915
124.0, -126218.33398560692, -126046.56082946788, -110627.07580650758, -125437.0064064272, -87834.42084007512, -88353.96478819428, -134506.80786452387, 50738.14698912466, -0.362, -0.6900000000000001, 0.596, 192.0, 0.0, 0.0, 0.0, 0.0, 0.0, 0.0, 0.0, 0.0, 0.0, 1.696958548919658E9, 0.0, 2023-10-10 14:22:28.919
125.0, -126253.98501801313, -126100.40618186072, -110687.49257177027, -125495.36681120002, -87887.1486052452, -88405.32909695257, -134555.37820522525, 50674.44451742703, -0.362, -0.6900000000000001, 0.596, 192.0, 0.0, 0.0, 0.0, 0.0, 0.0, 0.0, 0.0, 0.0, 0.0, 1.696958548923636E9, 0.0, 2023-10-10 14:22:28.923
126.0, -126335.01009166361, -126199.78203770901, -110806.29209355022, -125593.46861761436, -87987.68675180516, -88509.46587436985, -134653.0329767505, 50566.99968183037, -0.362, -0.6900000000000001, 0.596, 192.0, 0.0, 0.0, 0.0, 0.0, 0.0, 0.0, 0.0, 0.0, 0.0, 1.696958548926676E9, 0.0, 2023-10-10 14:22:28.926
127.0, -126320.16853334529, -126170.90358387276, -110766.90831981997, -125558.53284103071, -87948.79471645293, -88480.8332897226, -134621.44996183514, 50615.05593240928, -0.362, -0.6900000000000001, 0.596, 192.0, 0.0, 0.0, 0.0, 0.0, 0.0, 0.0, 0.0, 0.0, 0.0, 1.6969585489306593E9, 0.0, 2023-10-10 14:22:28.930
128.0, -126228.61578805636, -126060.19539358561, -110636.88822232345, -125435.5535430376, -87826.0836393933, -88358.65865452989, -134502.38221912173, 50749.65813751914, -0.362, -0.6900000000000001, 0.596, 192.0, 0.0, 0.0, 0.0, 0.0, 0.0, 0.0, 0.0, 0.0, 0.0, 1.6969585489347117E9, 0.0, 2023-10-10 14:22:28.934
129.0, -126246.85481153188, -126096.82990274786, -110675.69085069787, -125468.2094416868, -87869.58013410332, -88391.49336713474, -134532.22179796957, 50707.07806433178, -0.362, -0.6900000000000001, 0.596, 192.0, 0.0, 0.0, 0.0, 0.0, 0.0, 0.0, 0.0, 0.0, 0.0, 1.696958548938694E9, 0.0, 2023-10-10 14:22:28.938
130.0, -126338.85459170993, -126211.22613087013, -110817.89264892253, -125586.18194892192, -87993.9228885082, -88515.1432174615, -134651.9824447611, 50580.85776339266, -0.364, -0.6900000000000001, 0.598, 192.0, 244.0, 160.0, 234.0, 112.0, 18.0, 176.0, 0.0, 0.0, 0.0, 1.6969585489426897E9, 0.0, 2023-10-10 14:22:28.942
131.0, -126342.98966443416, -126202.79952321047, -110801.5982272146, -125578.26943138475, -87978.1649086672, -88511.52223485975, -134649.99313950457, 50599.49911826839, -0.364, -0.6900000000000001, 0.598, 192.0, 0.0, 0.0, 0.0, 0.0, 0.0, 0.0, 0.0, 0.0, 0.0, 1.696958548947756E9, 0.0, 2023-10-10 14:22:28.947
132.0, -126242.16094519627, -126074.12053038127, -110657.89886211144, -125449.56808681108, -87838.5335610549, -88376.78591928315, -134522.2976234314, 50746.9759281845, -0.364, -0.6900000000000001, 0.598, 192.0, 0.0, 0.0, 0.0, 0.0, 0.0, 0.0, 0.0, 0.0, 0.0, 1.6969585489517167E9, 0.0, 2023-10-10 14:22:28.951
133.0, -126212.07549715943, -126057.82610867335, -110644.42076020488, -125439.9121332064, -87832.00685167396, -88353.51775330518, -134507.18784417963, 50759.09057367928, -0.364, -0.6900000000000001, 0.598, 192.0, 0.0, 0.0, 0.0, 0.0, 0.0, 0.0, 0.0, 0.0, 0.0, 1.6969585489547813E9, 0.0, 2023-10-10 14:22:28.954
134.0, -126316.59225423244, -126188.06972361443, -110788.0977735636, -125568.4346638244, -87972.93460046466, -88487.02472293672, -134636.31387189793, 50619.43687432252, -0.364, -0.6900000000000001, 0.598, 192.0, 0.0, 0.0, 0.0, 0.0, 0.0, 0.0, 0.0, 0.0, 0.0, 1.6969585489588315E9, 0.0, 2023-10-10 14:22:28.958
135.0, -126349.62813253739, -126209.39328782479, -110812.66234071998, -125601.0458589847, -88009.14442648226, -88526.36379317807, -134673.4401194382, 50595.073472866236, -0.364, -0.6900000000000001, 0.598, 192.0, 0.0, 0.0, 0.0, 0.0, 0.0, 0.0, 0.0, 0.0, 0.0, 1.696958548962709E9, 0.0, 2023-10-10 14:22:28.962
136.0, -126255.43788140273, -126090.97374570058, -110673.70154544135, -125475.5631656126, -87889.31672445736, -88407.20664348682, -134553.29949299092, 50728.2228145865, -0.364, -0.6900000000000001, 0.598, 192.0, 0.0, 0.0, 0.0, 0.0, 0.0, 0.0, 0.0, 0.0, 0.0, 1.6969585489667447E9, 0.0, 2023-10-10 14:22:28.966
137.0, -126214.91416870525, -126046.47142249005, -110627.58989663004, -125428.69155748983, -87852.81632576184, -88354.36711959448, -134497.97892546403, 50774.69209130909, -0.364, -0.6900000000000001, 0.598, 192.0, 0.0, 0.0, 0.0, 0.0, 0.0, 0.0, 0.0, 0.0, 0.0, 1.6969585489707174E9, 0.0, 2023-10-10 14:22:28.970
138.0, -126294.0616958215, -126147.38954870577, -110746.90350853247, -125542.12666060051, -87970.40885334121, -88455.15113534346, -134602.74155172607, 50660.96641552048, -0.364, -0.6900000000000001, 0.598, 192.0, 0.0, 0.0, 0.0, 0.0, 0.0, 0.0, 0.0, 0.0, 0.0, 1.6969585489757187E9, 0.0, 2023-10-10 14:22:28.975
139.0, -126338.98870217666, -126198.97737490862, -110805.48743074984, -125597.08960021612, -88024.12009526731, -88515.61260409506, -134661.39252917678, 50610.518528284854, -0.364, -0.6900000000000001, 0.598, 192.0, 0.0, 0.0, 0.0, 0.0, 0.0, 0.0, 0.0, 0.0, 0.0, 1.6969585489787643E9, 0.0, 2023-10-10 14:22:28.978
140.0, -126268.62541063136, -126108.56456858691, -110698.1767056199, -125494.62920363298, -87924.76659116347, -88415.27562323518, -134561.10025180582, 50723.99833488445, -0.366, -0.684, 0.606, 192.0, 244.0, 144.0, 234.0, 160.0, 18.0, 240.0, 0.0, 0.0, 0.0, 1.6969585489817488E9, 0.0, 2023-10-10 14:22:28.981
141.0, -126211.85197971488, -126046.98551261253, -110611.67545457787, -125422.14249636442, -87869.60248584778, -88330.16018034938, -134483.3385328458, 50797.78144333142, -0.366, -0.684, 0.606, 192.0, 0.0, 0.0, 0.0, 0.0, 0.0, 0.0, 0.0, 0.0, 0.0, 1.6969585489867237E9, 0.0, 2023-10-10 14:22:28.986
142.0, -126289.56899518598, -126143.94738005966, -110728.44096761239, -125519.88667486748, -87999.91315602222, -88428.10552455253, -134578.42285375868, 50682.22292449748, -0.366, -0.684, 0.606, 192.0, 0.0, 0.0, 0.0, 0.0, 0.0, 0.0, 0.0, 0.0, 0.0, 1.6969585489950132E9, 0.0, 2023-10-10 14:22:28.995
143.0, -126355.50664132914, -126218.37868909583, -110816.19391634392, -125589.22178616784, -88101.32302061595, -88512.41630463795, -134654.03880525098, 50587.9879698739, -0.366, -0.684, 0.606, 192.0, 0.0, 0.0, 0.0, 0.0, 0.0, 0.0, 0.0, 0.0, 0.0, 1.6969585489950502E9, 0.0, 2023-10-10 14:22:28.995
144.0, -126302.3094895255, -126146.02609229399, -110736.2417264273, -125506.05094504965, -88039.76631638603, -88441.0248328477, -134586.2683160625, 50661.771078320875, -0.366, -0.684, 0.606, 192.0, 0.0, 0.0, 0.0, 0.0, 0.0, 0.0, 0.0, 0.0, 0.0, 1.6969585489988E9, 0.0, 2023-10-10 14:22:28.998
145.0, -126219.56333155195, -126054.0486638604, -110621.84549830503, -125405.06576360056, -87960.19410612514, -88338.34091882002, -134486.6465910252, 50761.54926556937, -0.366, -0.684, 0.606, 192.0, 0.0, 0.0, 0.0, 0.0, 0.0, 0.0, 0.0, 0.0, 0.0, 1.6969585490037668E9, 0.0, 2023-10-10 14:22:29.003
146.0, -126271.21821298817, -126123.42847864969, -110712.81709823813, -125493.53396815468, -88066.63311322131, -88416.21439650231, -134568.99041759854, 50668.56600863529, -0.366, -0.684, 0.606, 192.0, 0.0, 0.0, 0.0, 0.0, 0.0, 0.0, 0.0, 0.0, 0.0, 1.696958549006795E9, 0.0, 2023-10-10 14:22:29.006
147.0, -126343.39199583436, -126205.79465696748, -110826.8556984491, -125594.49679785929, -88177.81069014201, -88516.99841225128, -134669.1932879917, 50563.93749283999, -0.366, -0.684, 0.606, 192.0, 0.0, 0.0, 0.0, 0.0, 0.0, 0.0, 0.0, 0.0, 0.0, 1.6969585490097916E9, 0.0, 2023-10-10 14:22:29.009
148.0, -126313.93239664227, -126161.31468550143, -110766.12600876404, -125541.94784664486, -88134.2024367097, -88468.383368061, -134617.2254821331, 50621.292069112314, -0.366, -0.684, 0.606, 192.0, 0.0, 0.0, 0.0, 0.0, 0.0, 0.0, 0.0, 0.0, 0.0, 1.6969585490147724E9, 0.0, 2023-10-10 14:22:29.014
149.0, -126213.6401192713, -126049.1983353136, -110611.02725398866, -125419.25912132968, -88023.15897025574, -88343.63828225592, -134492.03336143892, 50741.544454281866, -0.366, -0.684, 0.606, 192.0, 0.0, 0.0, 0.0, 0.0, 0.0, 0.0, 0.0, 0.0, 0.0, 1.6969585490189493E9, 0.0, 2023-10-10 14:22:29.018
150.0, -126234.51664859256, -126094.6170800468, -110685.14563860247, -125471.94218301085, -88091.55530828898, -88402.15514923992, -134543.6658911307, 50669.61654062469, -0.366, -0.684, 0.606, 192.0, 0.0, 0.0, 0.0, 0.0, 0.0, 0.0, 0.0, 0.0, 0.0, 1.6969585490228257E9, 0.0, 2023-10-10 14:22:29.022
151.0, -126325.73411771466, -126206.91224419026, -110818.58555300064, -125597.11195196057, -88222.0671441635, -88529.2471682128, -134665.34878794538, 50535.23785295938, -0.364, -0.6880000000000001, 0.598, 192.0, 244.0, 160.0, 234.0, 128.0, 18.0, 176.0, 0.0, 0.0, 0.0, 1.6969585490267973E9, 0.0, 2023-10-10 14:22:29.026
152.0, -126324.39301304735, -126191.82481668293, -110784.32032875066, -125573.50850981576, -88200.83298693097, -88508.34828714709, -134646.70743306965, 50559.422440460025, -0.364, -0.6880000000000001, 0.598, 192.0, 0.0, 0.0, 0.0, 0.0, 0.0, 0.0, 0.0, 0.0, 0.0, 1.6969585490308335E9, 0.0, 2023-10-10 14:22:29.030
153.0, -126218.75866875157, -126066.05155063291, -110632.68609436585, -125431.59728426902, -88068.01892137753, -88357.54106730713, -134505.13148368974, 50713.157738823626, -0.364, -0.6880000000000001, 0.598, 192.0, 0.0, 0.0, 0.0, 0.0, 0.0, 0.0, 0.0, 0.0, 0.0, 1.696958549034794E9, 0.0, 2023-10-10 14:22:29.034
154.0, -126233.6449305588, -126093.3653823573, -110671.48872274027, -125453.83727000206, -88103.40173285028, -88368.31460813459, -134517.98373675154, 50687.3638257222, -0.364, -0.6880000000000001, 0.598, 192.0, 0.0, 0.0, 0.0, 0.0, 0.0, 0.0, 0.0, 0.0, 0.0, 1.696958549037834E9, 0.0, 2023-10-10 14:22:29.037
155.0, -126335.323016086, -126218.11046816237, -110834.90232645301, -125587.83597801162, -88249.60449333244, -88504.16851093395, -134650.66369183824, 50537.76360008283, -0.364, -0.6880000000000001, 0.598, 192.0, 0.0, 0.0, 0.0, 0.0, 0.0, 0.0, 0.0, 0.0, 0.0, 1.6969585490428376E9, 0.0, 2023-10-10 14:22:29.042
156.0, -126348.71171101472, -126227.4982008336, -110827.83917520514, -125600.01767873975, -88261.27210393811, -88513.77976104972, -134664.2312007226, 50532.26507094682, -0.364, -0.6880000000000001, 0.598, 192.0, 0.0, 0.0, 0.0, 0.0, 0.0, 0.0, 0.0, 0.0, 0.0, 1.6969585490469975E9, 0.0, 2023-10-10 14:22:29.046
157.0, -126241.55744809598, -126100.07090569388, -110651.95329808633, -125454.79839501363, -88120.92550050325, -88367.7111110343, -134522.5434926204, 50681.53002041936, -0.364, -0.6880000000000001, 0.598, 192.0, 0.0, 0.0, 0.0, 0.0, 0.0, 0.0, 0.0, 0.0, 0.0, 1.6969585490508294E9, 0.0, 2023-10-10 14:22:29.050
158.0, -126212.67899425972, -126074.8581379483, -110626.40525417391, -125420.55552250809, -88098.9984391926, -88329.53433150463, -134483.31618110134, 50702.56301195181, -0.364, -0.6880000000000001, 0.598, 192.0, 0.0, 0.0, 0.0, 0.0, 0.0, 0.0, 0.0, 0.0, 0.0, 1.6969585490548491E9, 0.0, 2023-10-10 14:22:29.054
159.0, -126317.97806238868, -126201.01138365405, -110792.43401198793, -125559.82924220912, -88242.60839731793, -88473.94895243036, -134622.29932812444, 50546.25726297584, -0.364, -0.6880000000000001, 0.598, 192.0, 0.0, 0.0, 0.0, 0.0, 0.0, 0.0, 0.0, 0.0, 0.0, 1.6969585490590625E9, 0.0, 2023-10-10 14:22:29.059
160.0, -126348.89052497037, -126231.43210785772, -110828.80030021672, -125586.56192857766, -88277.56652564603, -88514.56207210566, -134657.0786424969, 50510.89680324755, -0.364, -0.6880000000000001, 0.598, 192.0, 0.0, 0.0, 0.0, 0.0, 0.0, 0.0, 0.0, 0.0, 0.0, 1.6969585490628731E9, 0.0, 2023-10-10 14:22:29.062
161.0, -126268.67011412026, -126118.9134262697, -110681.18937983387, -125472.05394173312, -88166.97009408117, -88398.5118148937, -134548.3150539774, 50630.12100817216, -0.366, -0.6900000000000001, 0.6, 192.0, 244.0, 144.0, 234.0, 112.0, 18.0, 192.0, 0.0, 0.0, 0.0, 1.6969585490658636E9, 0.0, 2023-10-10 14:22:29.065
162.0, -126222.37965135333, -126068.24202158953, -110631.54615539864, -125423.81887719857, -88128.59214885141, -88345.62758751246, -134492.7486172615, 50672.87989531516, -0.366, -0.6900000000000001, 0.6, 192.0, 0.0, 0.0, 0.0, 0.0, 0.0, 0.0, 0.0, 0.0, 0.0, 1.6969585490699134E9, 0.0, 2023-10-10 14:22:29.069
163.0, -126286.43975096224, -126163.57221169141, -110754.01136326927, -125528.6262069495, -88243.01072871813, -88451.79837367516, -134591.00688588704, 50552.44869618997, -0.366, -0.6900000000000001, 0.6, 192.0, 0.0, 0.0, 0.0, 0.0, 0.0, 0.0, 0.0, 0.0, 0.0, 1.6969585490748963E9, 0.0, 2023-10-10 14:22:29.074
164.0, -126351.63978953837, -126230.11335493486, -110844.1112451686, -125601.82817004064, -88319.7442674332, -88534.23160722633, -134668.05334902447, 50475.29047433025, -0.366, -0.6900000000000001, 0.6, 192.0, 0.0, 0.0, 0.0, 0.0, 0.0, 0.0, 0.0, 0.0, 0.0, 1.696958549078874E9, 0.0, 2023-10-10 14:22:29.078
165.0, -126292.0053353316, -126146.02609229399, -110726.60812456705, -125512.1306195415, -88227.00687968814, -88437.11327756802, -134585.24013581756, 50586.825679162226, -0.366, -0.6900000000000001, 0.6, 192.0, 0.0, 0.0, 0.0, 0.0, 0.0, 0.0, 0.0, 0.0, 0.0, 1.6969585490828977E9, 0.0, 2023-10-10 14:22:29.082
166.0, -126228.81695375645, -126072.15357686921, -110637.49171942375, -125430.85967670199, -88155.6601113868, -88352.46722131578, -134507.03138196844, 50661.52520913187, -0.366, -0.6900000000000001, 0.6, 192.0, 0.0, 0.0, 0.0, 0.0, 0.0, 0.0, 0.0, 0.0, 0.0, 1.6969585490860374E9, 0.0, 2023-10-10 14:22:29.086
167.0, -126283.86930034988, -126146.22725799409, -110734.76651129324, -125507.23558750578, -88243.18954267378, -88427.3232134966, -134578.51226073652, 50568.854876620164, -0.366, -0.6900000000000001, 0.6, 192.0, 0.0, 0.0, 0.0, 0.0, 0.0, 0.0, 0.0, 0.0, 0.0, 1.6969585490899167E9, 0.0, 2023-10-10 14:22:29.089
168.0, -126364.40263562235, -126240.19399168421, -110847.95574521492, -125608.06430674366, -88343.45946830028, -88524.93328153293, -134681.6432096533, 50469.54607600523, -0.366, -0.6900000000000001, 0.6, 192.0, 0.0, 0.0, 0.0, 0.0, 0.0, 0.0, 0.0, 0.0, 0.0, 1.6969585490939345E9, 0.0, 2023-10-10 14:22:29.093
169.0, -126321.8672659239, -126179.88898514379, -110756.71592434835, -125540.71850069983, -88276.89597331238, -88459.53207725669, -134622.6346042913, 50545.74317285338, -0.366, -0.6900000000000001, 0.6, 192.0, 0.0, 0.0, 0.0, 0.0, 0.0, 0.0, 0.0, 0.0, 0.0, 1.6969585490979996E9, 0.0, 2023-10-10 14:22:29.097
170.0, -126225.71006127716, -126075.10400713731, -110618.82801280357, -125423.86358068748, -88162.0080068121, -88335.03286064064, -134501.26463189896, 50666.33083418976, -0.366, -0.6900000000000001, 0.6, 192.0, 0.0, 0.0, 0.0, 0.0, 0.0, 0.0, 0.0, 0.0, 0.0, 1.696958549102934E9, 0.0, 2023-10-10 14:22:29.102
171.0, -126274.52627116756, -126140.66167362472, -110700.05425215415, -125501.60294790304, -88242.49663859566, -88404.61384113, -134573.81839440088, 50578.2873127803, -0.364, -0.6900000000000001, 0.598, 192.0, 244.0, 160.0, 234.0, 112.0, 18.0, 176.0, 0.0, 0.0, 0.0, 1.6969585491069205E9, 0.0, 2023-10-10 14:22:29.106
172.0, -126376.02554273911, -126256.93544828123, -110835.34936134212, -125621.27418771676, -88368.26990464567, -88532.06348801417, -134696.06008482695, 50449.541264717736, -0.364, -0.6900000000000001, 0.598, 192.0, 0.0, 0.0, 0.0, 0.0, 0.0, 0.0, 0.0, 0.0, 0.0, 1.6969585491110308E9, 0.0, 2023-10-10 14:22:29.111
173.0, -126344.19665863476, -126205.70524998967, -110778.41946821446, -125560.52214628723, -88309.41776149486, -88481.19091763388, -134641.99121498957, 50508.9745532244, -0.364, -0.6900000000000001, 0.598, 192.0, 0.0, 0.0, 0.0, 0.0, 0.0, 0.0, 0.0, 0.0, 0.0, 1.6969585491139345E9, 0.0, 2023-10-10 14:22:29.113
174.0, -126239.32227365045, -126077.56269902739, -110636.91057406791, -125420.77903995264, -88171.23927727215, -88340.1514101209, -134506.0479052124, 50658.194799208024, -0.364, -0.6900000000000001, 0.598, 192.0, 0.0, 0.0, 0.0, 0.0, 0.0, 0.0, 0.0, 0.0, 0.0, 1.696958549117926E9, 0.0, 2023-10-10 14:22:29.117
175.0, -126258.2542012041, -126114.8677605233, -110679.46829551081, -125461.2133456723, -88219.36258308442, -88375.42246287137, -134537.8991410612, 50610.60793526268, -0.364, -0.6900000000000001, 0.598, 192.0, 0.0, 0.0, 0.0, 0.0, 0.0, 0.0, 0.0, 0.0, 0.0, 1.696958549122039E9, 0.0, 2023-10-10 14:22:29.122
176.0, -126358.90410648634, -126237.31061664947, -110824.86639319258, -125591.70282980238, -88357.27284637367, -88515.56790060615, -134670.35557870337, 50468.473192271376, -0.364, -0.6900000000000001, 0.598, 192.0, 0.0, 0.0, 0.0, 0.0, 0.0, 0.0, 0.0, 0.0, 0.0, 1.696958549126039E9, 0.0, 2023-10-10 14:22:29.126
177.0, -126349.73989125967, -126223.22901764263, -110802.08996559263, -125572.32386735964, -88339.72672697625, -88504.50378710077, -134657.83860180838, 50488.20978262542, -0.364, -0.6900000000000001, 0.598, 192.0, 0.0, 0.0, 0.0, 0.0, 0.0, 0.0, 0.0, 0.0, 0.0, 1.6969585491309562E9, 0.0, 2023-10-10 14:22:29.130
178.0, -126253.0015412571, -126106.88818775276, -110671.13109482898, -125452.92084847938, -88221.39659182985, -88383.73731180874, -134539.5531701509, 50622.2978976128, -0.364, -0.6900000000000001, 0.598, 192.0, 0.0, 0.0, 0.0, 0.0, 0.0, 0.0, 0.0, 0.0, 0.0, 1.6969585491349697E9, 0.0, 2023-10-10 14:22:29.134
179.0, -126239.52343935055, -126105.68119355217, -110677.05430710963, -125452.25029614572, -88230.29258612306, -88381.43508212986, -134532.53472239195, 50626.65648778158, -0.364, -0.6900000000000001, 0.598, 192.0, 0.0, 0.0, 0.0, 0.0, 0.0, 0.0, 0.0, 0.0, 0.0, 1.6969585491390336E9, 0.0, 2023-10-10 14:22:29.139
180.0, -126342.45322256723, -126232.3485293804, -110829.53790778374, -125575.49781507229, -88363.26311388769, -88509.30941215866, -134644.82988653542, 50497.70927401892, -0.364, -0.6900000000000001, 0.598, 192.0, 0.0, 0.0, 0.0, 0.0, 0.0, 0.0, 0.0, 0.0, 0.0, 1.6969585491420555E9, 0.0, 2023-10-10 14:22:29.142
181.0, -126366.68251355679, -126251.59338135642, -110833.00242817431, -125596.59786183809, -88380.45160537382, -88527.57078737865, -134662.778337333, 50487.5168785473, -0.364, -0.6900000000000001, 0.598, 192.0, 0.0, 0.0, 0.0, 0.0, 0.0, 0.0, 0.0, 0.0, 0.0, 1.6969585491459827E9, 0.0, 2023-10-10 14:22:29.145
182.0, -126275.7556171126, -126122.10972572681, -110667.64422269395, -125465.68369456335, -88242.38487987338, -88387.1124252215, -134531.43948691362, 50635.23955765242, -0.364, -0.6900000000000001, 0.598, 192.0, 244.0, 160.0, 234.0, 112.0, 18.0, 176.0, 0.0, 0.0, 0.0, 1.6969585491502652E9, 0.0, 2023-10-10 14:22:29.150
183.0, -126235.36601488186, -126080.1107978953, -110629.13216699746, -125417.96272015128, -88204.36456255491, -88336.5974827525, -134483.11501540124, 50676.43382268355, -0.364, -0.6900000000000001, 0.598, 192.0, 0.0, 0.0, 0.0, 0.0, 0.0, 0.0, 0.0, 0.0, 0.0, 1.6969585491540713E9, 0.0, 2023-10-10 14:22:29.154
184.0, -126330.45033579474, -126201.07843888742, -110776.43016295793, -125542.97602688981, -88337.08922113052, -88463.64479823648, -134609.15650238472, 50531.326297679705, -0.364, -0.6900000000000001, 0.598, 192.0, 0.0, 0.0, 0.0, 0.0, 0.0, 0.0, 0.0, 0.0, 0.0, 1.6969585491589875E9, 0.0, 2023-10-10 14:22:29.158
185.0, -126382.32873467551, -126256.51076513658, -110831.81778571819, -125600.08473397313, -88388.78880605564, -88521.96049952037, -134668.29921821348, 50470.17192484998, -0.364, -0.6900000000000001, 0.598, 192.0, 0.0, 0.0, 0.0, 0.0, 0.0, 0.0, 0.0, 0.0, 0.0, 1.6969585491631043E9, 0.0, 2023-10-10 14:22:29.163
186.0, -126298.62145169039, -126154.29623774246, -110722.02601695372, -125496.79732284514, -88280.82988033652, -88420.12595178199, -134571.9631996111, 50579.62841744762, -0.364, -0.6900000000000001, 0.598, 192.0, 0.0, 0.0, 0.0, 0.0, 0.0, 0.0, 0.0, 0.0, 0.0, 1.6969585491670182E9, 0.0, 2023-10-10 14:22:29.167
187.0, -126237.86941026086, -126093.47714107957, -110660.5140162127, -125440.33681635105, -88223.45295231974, -88355.99879693972, -134513.17811169365, 50637.0500489533, -0.364, -0.6900000000000001, 0.598, 192.0, 0.0, 0.0, 0.0, 0.0, 0.0, 0.0, 0.0, 0.0, 0.0, 1.6969585491701288E9, 0.0, 2023-10-10 14:22:29.170
188.0, -126308.67973669527, -126182.01240086704, -110750.85976730107, -125543.64657922347, -88321.30888954508, -88445.15990557193, -134611.23521461908, 50535.796646570765, -0.364, -0.6900000000000001, 0.598, 192.0, 0.0, 0.0, 0.0, 0.0, 0.0, 0.0, 0.0, 0.0, 0.0, 1.696958549174058E9, 0.0, 2023-10-10 14:22:29.174
189.0, -126367.86715601292, -126246.38542489833, -110823.56999201418, -125614.16633297996, -88385.0113612427, -88514.31620291666, -134684.16895677673, 50463.86873291359, -0.364, -0.6900000000000001, 0.598, 192.0, 0.0, 0.0, 0.0, 0.0, 0.0, 0.0, 0.0, 0.0, 0.0, 1.696958549178032E9, 0.0, 2023-10-10 14:22:29.178
190.0, -126302.64476569234, -126161.44879596816, -110713.77822324971, -125527.30745402664, -88295.38086597691, -88420.68474539337, -134602.7639034705, 50557.321376481224, -0.364, -0.6900000000000001, 0.598, 192.0, 0.0, 0.0, 0.0, 0.0, 0.0, 0.0, 0.0, 0.0, 0.0, 1.69695854918204E9, 0.0, 2023-10-10 14:22:29.182
191.0, -126221.79850599749, -126077.22742286057, -110614.46942263478, -125436.69348200483, -88214.04286790406, -88327.5003227592, -134509.84770176982, 50643.46499961198, -0.364, -0.6900000000000001, 0.598, 192.0, 0.0, 0.0, 0.0, 0.0, 0.0, 0.0, 0.0, 0.0, 0.0, 1.696958549186042E9, 0.0, 2023-10-10 14:22:29.186
192.0, -126269.36301819838, -126149.66942664022, -110717.71213027384, -125511.3259567411, -88301.75111314669, -88409.06183827661, -134579.27222004798, 50551.26405373384, -0.366, -0.686, 0.606, 192.0, 244.0, 144.0, 234.0, 144.0, 18.0, 240.0, 0.0, 0.0, 0.0, 1.6969585491911087E9, 0.0, 2023-10-10 14:22:29.191
193.0, -126360.78165302059, -126248.66530283277, -110824.91109668149, -125608.6454520995, -88402.13279749546, -88510.58346159261, -134676.45760493967, 50448.468380983875, -0.366, -0.686, 0.606, 192.0, 0.0, 0.0, 0.0, 0.0, 0.0, 0.0, 0.0, 0.0, 0.0, 1.696958549195058E9, 0.0, 2023-10-10 14:22:29.195
194.0, -126319.34151880044, -126191.71305796065, -110745.11536897605, -125546.30643681365, -88333.26707282866, -88450.90430389694, -134620.6676507792, 50519.368114396115, -0.366, -0.686, 0.606, 192.0, 0.0, 0.0, 0.0, 0.0, 0.0, 0.0, 0.0, 0.0, 0.0, 1.69695854919807E9, 0.0, 2023-10-10 14:22:29.198
195.0, -126217.6410815288, -126082.12245489628, -110627.83576581905, -125427.1045836335, -88228.23622563318, -88341.8054392106, -134504.28211740043, 50627.729371515445, -0.366, -0.686, 0.606, 192.0, 0.0, 0.0, 0.0, 0.0, 0.0, 0.0, 0.0, 0.0, 0.0, 1.6969585492020764E9, 0.0, 2023-10-10 14:22:29.202
196.0, -126264.51268965159, -126146.04844403845, -110723.47888034332, -125482.64866860493, -88303.58395619201, -88412.79457960065, -134556.98753082604, 50549.87824557761, -0.366, -0.686, 0.606, 192.0, 0.0, 0.0, 0.0, 0.0, 0.0, 0.0, 0.0, 0.0, 0.0, 1.6969585492061079E9, 0.0, 2023-10-10 14:22:29.206
197.0, -126350.96923720471, -126251.03458774503, -110838.47860556586, -125586.51722508876, -88400.3670096835, -88522.07225824264, -134666.4216716792, 50440.1088285576, -0.366, -0.686, 0.606, 192.0, 0.0, 0.0, 0.0, 0.0, 0.0, 0.0, 0.0, 0.0, 0.0, 1.6969585492101014E9, 0.0, 2023-10-10 14:22:29.210
198.0, -126323.1189636134, -126209.39328782479, -110770.37284021055, -125547.37932054751, -88340.88901768792, -88478.46400481035, -134634.65984280824, 50492.27780011628, -0.366, -0.686, 0.606, 192.0, 0.0, 0.0, 0.0, 0.0, 0.0, 0.0, 0.0, 0.0, 0.0, 1.6969585492151103E9, 0.0, 2023-10-10 14:22:29.215
199.0, -126226.35826186636, -126094.48296958006, -110637.40231244592, -125425.53996152163, -88208.90196667933, -88353.58480853854, -134510.98764073703, 50624.10838891368, -0.366, -0.686, 0.606, 192.0, 0.0, 0.0, 0.0, 0.0, 0.0, 0.0, 0.0, 0.0, 0.0, 1.69695854921912E9, 0.0, 2023-10-10 14:22:29.219
200.0, -126258.2542012041, -126139.52173465751, -110696.83560095259, -125466.0636742191, -88247.70459505374, -88387.89473627743, -134540.53664690693, 50570.79947838777, -0.366, -0.686, 0.606, 192.0, 0.0, 0.0, 0.0, 0.0, 0.0, 0.0, 0.0, 0.0, 0.0, 1.6969585492221577E9, 0.0, 2023-10-10 14:22:29.222
201.0, -126350.41044359333, -126248.48648887713, -110824.21819260338, -125582.15863491996, -88360.24562838623, -88503.40855162246, -134657.6821395972, 50451.01647985178, -0.366, -0.686, 0.606, 192.0, 0.0, 0.0, 0.0, 0.0, 0.0, 0.0, 0.0, 0.0, 0.0, 1.6969585492261448E9, 0.0, 2023-10-10 14:22:29.226
202.0, -126354.321998873, -126242.67503531874, -110804.43689876044, -125579.16350116296, -88345.29231134562, -88496.3901038635, -134658.19622971967, 50476.69863423093, -0.362, -0.6880000000000001, 0.6, 192.0, 244.0, 176.0, 234.0, 128.0, 18.0, 192.0, 0.0, 0.0, 0.0, 1.6969585492301593E9, 0.0, 2023-10-10 14:22:29.230
203.0, -126257.11426223688, -126124.54606587245, -110669.05238259464, -125454.08313919106, -88211.13714112487, -88365.96767496679, -134529.36077467928, 50622.85669122419, -0.362, -0.6880000000000001, 0.6, 192.0, 0.0, 0.0, 0.0, 0.0, 0.0, 0.0, 0.0, 0.0, 0.0, 1.696958549234117E9, 0.0, 2023-10-10 14:22:29.234
204.0, -126249.67113133326, -126115.15833320122, -110673.76860067471, -125455.22307815828, -88212.47824579218, -88363.97836971025, -134524.77866706596, 50607.76926371685, -0.362, -0.6880000000000001, 0.6, 192.0, 0.0, 0.0, 0.0, 0.0, 0.0, 0.0, 0.0, 0.0, 0.0, 1.6969585492381358E9, 0.0, 2023-10-10 14:22:29.238
205.0, -126340.06158591052, -126227.92288397824, -110815.27749482126, -125582.6950767869, -88335.83752344102, -88487.89644097048, -134650.10489822685, 50465.85803817011, -0.362, -0.6880000000000001, 0.6, 192.0, 0.0, 0.0, 0.0, 0.0, 0.0, 0.0, 0.0, 0.0, 0.0, 1.6969585492421844E9, 0.0, 2023-10-10 14:22:29.242
206.0, -126360.6698942983, -126249.06763423297, -110797.73137542384, -125605.76207706478, -88347.59454102452, -88500.97221147684, -134675.96586656166, 50452.64815719702, -0.362, -0.6880000000000001, 0.6, 192.0, 0.0, 0.0, 0.0, 0.0, 0.0, 0.0, 0.0, 0.0, 0.0, 1.6969585492471235E9, 0.0, 2023-10-10 14:22:29.247
207.0, -126275.59915490141, -126138.62766487928, -110667.26424303821, -125486.2696512067, -88224.59289128696, -88383.13381470846, -134555.48996394753, 50581.05892909276, -0.362, -0.6880000000000001, 0.6, 192.0, 0.0, 0.0, 0.0, 0.0, 0.0, 0.0, 0.0, 0.0, 0.0, 1.6969585492501369E9, 0.0, 2023-10-10 14:22:29.250
208.0, -126233.51082009207, -126096.9640132146, -110632.32846645456, -125440.91796170689, -88187.0643123465, -88335.97163390776, -134503.45510285557, 50616.598202776695, -0.362, -0.6880000000000001, 0.6, 192.0, 0.0, 0.0, 0.0, 0.0, 0.0, 0.0, 0.0, 0.0, 0.0, 1.696958549254219E9, 0.0, 2023-10-10 14:22:29.254
209.0, -126331.5232195286, -126214.51183730506, -110774.95494782388, -125570.22280338084, -88319.49839824419, -88461.29786506867, -134631.7764677735, 50476.855096442116, -0.362, -0.6880000000000001, 0.6, 192.0, 0.0, 0.0, 0.0, 0.0, 0.0, 0.0, 0.0, 0.0, 0.0, 1.6969585492581255E9, 0.0, 2023-10-10 14:22:29.258
210.0, -126372.04693222606, -126256.17548896975, -110824.88874493704, -125616.93794929242, -88364.00072145471, -88515.00910699477, -134683.31959048743, 50431.5034069423, -0.362, -0.6880000000000001, 0.6, 192.0, 0.0, 0.0, 0.0, 0.0, 0.0, 0.0, 0.0, 0.0, 0.0, 1.696958549262302E9, 0.0, 2023-10-10 14:22:29.262
211.0, -126278.54958516952, -126146.62958939429, -110696.6791387414, -125500.50771242473, -88246.78817353108, -88407.65367837592, -134576.61236245782, 50559.02010905983, -0.362, -0.6880000000000001, 0.6, 192.0, 0.0, 0.0, 0.0, 0.0, 0.0, 0.0, 0.0, 0.0, 0.0, 1.696958549266178E9, 0.0, 2023-10-10 14:22:29.266
212.0, -126206.0405261565, -126071.52772802446, -110615.74347206873, -125419.01325214068, -88172.312161006, -88329.6460902269, -134496.83898649682, 50637.92176698706, -0.364, -0.686, 0.598, 192.0, 244.0, 160.0, 234.0, 144.0, 18.0, 176.0, 0.0, 0.0, 0.0, 1.6969585492701805E9, 0.0, 2023-10-10 14:22:29.270
213.0, -126289.68075390825, -126176.62563045332, -110761.07451451714, -125529.4308697499, -88291.64812465289, -88442.58945495957, -134607.2789558505, 50521.603288841645, -0.364, -0.686, 0.598, 192.0, 0.0, 0.0, 0.0, 0.0, 0.0, 0.0, 0.0, 0.0, 0.0, 1.696958549275201E9, 0.0, 2023-10-10 14:22:29.275
214.0, -126373.92447876031, -126262.34457043941, -110851.6661347945, -125617.56379813717, -88384.63138158697, -88534.00808978178, -134704.21847155315, 50431.19048251992, -0.364, -0.686, 0.598, 192.0, 0.0, 0.0, 0.0, 0.0, 0.0, 0.0, 0.0, 0.0, 0.0, 1.6969585492783616E9, 0.0, 2023-10-10 14:22:29.278
215.0, -126324.28125432508, -126188.36029629235, -110757.56529063765, -125531.35311977305, -88301.28172651312, -88455.44170802138, -134617.5831100444, 50517.535271350775, -0.364, -0.686, 0.598, 192.0, 0.0, 0.0, 0.0, 0.0, 0.0, 0.0, 0.0, 0.0, 0.0, 1.6969585492822313E9, 0.0, 2023-10-10 14:22:29.282
216.0, -126230.33687237941, -126094.19239690214, -110634.67539962237, -125426.23286559974, -88199.96126889721, -88341.64897699941, -134507.32195464635, 50620.5991650342, -0.364, -0.686, 0.598, 192.0, 0.0, 0.0, 0.0, 0.0, 0.0, 0.0, 0.0, 0.0, 0.0, 1.6969585492862048E9, 0.0, 2023-10-10 14:22:29.286
217.0, -126283.82459686097, -126175.01630485253, -110728.61978156804, -125500.10538102454, -88288.09419728449, -88417.42139070289, -134577.75230142503, 50529.00171625635, -0.364, -0.686, 0.598, 192.0, 0.0, 0.0, 0.0, 0.0, 0.0, 0.0, 0.0, 0.0, 0.0, 1.696958549290203E9, 0.0, 2023-10-10 14:22:29.290
218.0, -126369.29766765806, -126263.03747451754, -110810.49422150782, -125601.76111480728, -88392.65565784642, -88515.12086571705, -134678.2457444961, 50427.16716851797, -0.364, -0.686, 0.598, 192.0, 0.0, 0.0, 0.0, 0.0, 0.0, 0.0, 0.0, 0.0, 0.0, 1.6969585492942195E9, 0.0, 2023-10-10 14:22:29.294
219.0, -126335.65829225282, -126211.29318610349, -110735.81704328264, -125542.41723327844, -88331.83656118353, -88449.89847539646, -134620.44413333465, 50499.09508217515, -0.364, -0.686, 0.598, 192.0, 0.0, 0.0, 0.0, 0.0, 0.0, 0.0, 0.0, 0.0, 0.0, 1.6969585492982235E9, 0.0, 2023-10-10 14:22:29.298
220.0, -126255.1473087248, -126121.23800769306, -110629.3109809531, -125442.99667394122, -88234.36060361392, -88346.63341601293, -134514.40745763868, 50604.528260770836, -0.364, -0.686, 0.598, 192.0, 0.0, 0.0, 0.0, 0.0, 0.0, 0.0, 0.0, 0.0, 0.0, 1.6969585493032982E9, 0.0, 2023-10-10 14:22:29.303
221.0, -126282.88582359384, -126174.52456647452, -110713.44294708288, -125507.3249944836, -88302.93575560281, -88401.4622451618, -134571.40440599972, 50536.824826815704, -0.364, -0.686, 0.598, 192.0, 0.0, 0.0, 0.0, 0.0, 0.0, 0.0, 0.0, 0.0, 0.0, 1.6969585493063564E9, 0.0, 2023-10-10 14:22:29.306
222.0, -126365.14024318937, -126269.89946006531, -110829.5602595282, -125613.47342890185, -88409.28535572116, -88505.97900223482, -134679.89977358578, 50427.97183131836, -0.364, -0.686, 0.598, 192.0, 0.0, 0.0, 0.0, 0.0, 0.0, 0.0, 0.0, 0.0, 0.0, 1.6969585493092961E9, 0.0, 2023-10-10 14:22:29.309
223.0, -126335.03244340807, -126223.541942065, -110772.6974216339, -125563.76314923324, -88357.49636381822, -88463.15305985845, -134631.03886020646, 50490.51201230431, -0.364, -0.6900000000000001, 0.604, 192.0, 244.0, 160.0, 234.0, 112.0, 18.0, 224.0, 0.0, 0.0, 0.0, 1.696958549314288E9, 0.0, 2023-10-10 14:22:29.314
224.0, -126245.22313418666, -126110.93385349917, -110631.1661757429, -125438.14634539442, -88236.10403968145, -88336.17279960786, -134505.55616683437, 50633.71963902946, -0.364, -0.6900000000000001, 0.604, 192.0, 0.0, 0.0, 0.0, 0.0, 0.0, 0.0, 0.0, 0.0, 0.0, 1.6969585493182793E9, 0.0, 2023-10-10 14:22:29.318
225.0, -126255.70610233619, -126137.35361544533, -110668.24771979425, -125463.18029918437, -88267.64235110789, -88356.19996263982, -134526.18682696664, 50600.63905723561, -0.364, -0.6900000000000001, 0.604, 192.0, 0.0, 0.0, 0.0, 0.0, 0.0, 0.0, 0.0, 0.0, 0.0, 1.696958549322347E9, 0.0, 2023-10-10 14:22:29.322
226.0, -126356.24424889615, -126257.31542793698, -110811.83532617515, -125590.51818734626, -88403.87623356299, -88490.95862996086, -134655.80459306296, 50448.93776761744, -0.364, -0.6900000000000001, 0.604, 192.0, 0.0, 0.0, 0.0, 0.0, 0.0, 0.0, 0.0, 0.0, 0.0, 1.6969585493262894E9, 0.0, 2023-10-10 14:22:29.326
227.0, -126345.62717027988, -126243.09971846339, -110796.72554692335, -125578.7388180183, -88396.94719278184, -88486.84590898108, -134654.75406107356, 50460.87359915658, -0.364, -0.6900000000000001, 0.604, 192.0, 0.0, 0.0, 0.0, 0.0, 0.0, 0.0, 0.0, 0.0, 0.0, 1.6969585493302653E9, 0.0, 2023-10-10 14:22:29.330
228.0, -126242.92090450776, -126120.88037978178, -110647.81822536209, -125451.84796474552, -88275.24194422268, -88360.08916617504, -134533.4958474035, 50591.63130422012, -0.364, -0.6900000000000001, 0.604, 192.0, 0.0, 0.0, 0.0, 0.0, 0.0, 0.0, 0.0, 0.0, 0.0, 1.696958549333418E9, 0.0, 2023-10-10 14:22:29.333
229.0, -126224.41366009875, -126110.79974303243, -110644.4654636938, -125439.33098785055, -88273.833784322, -88346.0522706571, -134517.76021930698, 50592.972408887435, -0.364, -0.6900000000000001, 0.604, 192.0, 0.0, 0.0, 0.0, 0.0, 0.0, 0.0, 0.0, 0.0, 0.0, 1.6969585493382936E9, 0.0, 2023-10-10 14:22:29.338
230.0, -126314.04415536454, -126218.31163386247, -110781.90634034948, -125553.74956771727, -88395.7178468368, -88462.21428659133, -134629.92127298372, 50462.28175905726, -0.364, -0.6900000000000001, 0.604, 192.0, 0.0, 0.0, 0.0, 0.0, 0.0, 0.0, 0.0, 0.0, 0.0, 1.6969585493424115E9, 0.0, 2023-10-10 14:22:29.342
231.0, -126346.70005401374, -126255.30377093599, -110825.3581315706, -125584.03618145421, -88426.78677162968, -88505.4425603679, -134665.16997398974, 50434.0515058102, -0.364, -0.6900000000000001, 0.604, 192.0, 0.0, 0.0, 0.0, 0.0, 0.0, 0.0, 0.0, 0.0, 0.0, 1.6969585493462923E9, 0.0, 2023-10-10 14:22:29.346
232.0, -126258.053035504, -126143.45564168163, -110679.02126062171, -125464.54375559614, -88304.41097073686, -88383.35733215301, -134547.0633562879, 50569.8830568651, -0.364, -0.6900000000000001, 0.604, 192.0, 0.0, 0.0, 0.0, 0.0, 0.0, 0.0, 0.0, 0.0, 0.0, 1.6969585493503177E9, 0.0, 2023-10-10 14:22:29.350
233.0, -126222.2455408866, -126103.75894352901, -110631.27793446516, -125428.02100515617, -88266.05537725156, -88330.87543617195, -134504.97502147855, 50617.671086510556, -0.364, -0.6920000000000001, 0.602, 192.0, 244.0, 160.0, 234.0, 96.0, 18.0, 208.0, 0.0, 0.0, 0.0, 1.6969585493542895E9, 0.0, 2023-10-10 14:22:29.354
234.0, -126316.16757108779, -126221.35147110838, -110775.82666585765, -125552.36375956105, -88388.67704733337, -88456.22401907732, -134621.04763043494, 50486.17577387998, -0.364, -0.6920000000000001, 0.602, 192.0, 0.0, 0.0, 0.0, 0.0, 0.0, 0.0, 0.0, 0.0, 0.0, 1.696958549358497E9, 0.0, 2023-10-10 14:22:29.358
235.0, -126374.75149330516, -126279.73422762564, -110827.16862287148, -125613.13815273502, -88447.77505967321, -88517.11017097357, -134681.30793348647, 50424.95434581689, -0.364, -0.6920000000000001, 0.602, 192.0, 0.0, 0.0, 0.0, 0.0, 0.0, 0.0, 0.0, 0.0, 0.0, 1.6969585493613243E9, 0.0, 2023-10-10 14:22:29.361
236.0, -126292.45237022071, -126169.27190652752, -110693.88517068449, -125503.92752932639, -88330.0484216271, -88396.32134393709, -134571.18088855516, 50558.90835033755, -0.364, -0.6920000000000001, 0.602, 192.0, 0.0, 0.0, 0.0, 0.0, 0.0, 0.0, 0.0, 0.0, 0.0, 1.6969585493652875E9, 0.0, 2023-10-10 14:22:29.365
237.0, -126224.07838393193, -126092.29249862344, -110614.08944297904, -125426.21051385529, -88257.47230738073, -88315.02804935313, -134490.08875967131, 50645.38724963513, -0.364, -0.6920000000000001, 0.602, 192.0, 0.0, 0.0, 0.0, 0.0, 0.0, 0.0, 0.0, 0.0, 0.0, 1.6969585493703456E9, 0.0, 2023-10-10 14:22:29.370
238.0, -126307.20452156122, -126193.99293589509, -110740.645020085, -125533.96827387433, -88374.7072070488, -88423.3222512391, -134596.63952548977, 50529.09112323417, -0.364, -0.6920000000000001, 0.602, 192.0, 0.0, 0.0, 0.0, 0.0, 0.0, 0.0, 0.0, 0.0, 0.0, 1.6969585493743436E9, 0.0, 2023-10-10 14:22:29.374
239.0, -126374.9303072608, -126266.32318095246, -110824.88874493704, -125615.73095509184, -88456.29107431068, -88500.54752833219, -134678.67042764073, 50451.37410776307, -0.364, -0.6920000000000001, 0.602, 192.0, 0.0, 0.0, 0.0, 0.0, 0.0, 0.0, 0.0, 0.0, 0.0, 1.6969585493783016E9, 0.0, 2023-10-10 14:22:29.378
240.0, -126319.07329786698, -126192.16009284975, -110726.13873793349, -125537.05281460915, -88375.73538729375, -88417.73431512527, -134606.13901688327, 50543.21742572993, -0.364, -0.6920000000000001, 0.602, 192.0, 0.0, 0.0, 0.0, 0.0, 0.0, 0.0, 0.0, 0.0, 0.0, 1.6969585493823392E9, 0.0, 2023-10-10 14:22:29.382
241.0, -126239.545791095, -126102.88722549526, -110627.6122483745, -125441.29794136262, -88285.52374667213, -88322.40412502339, -134511.52408260395, 50638.949947232, -0.364, -0.6920000000000001, 0.602, 192.0, 0.0, 0.0, 0.0, 0.0, 0.0, 0.0, 0.0, 0.0, 0.0, 1.6969585493853276E9, 0.0, 2023-10-10 14:22:29.385
242.0, -126300.47664648017, -126184.94047939069, -110736.2864299162, -125523.23943653578, -88378.35054139502, -88414.58271915707, -134590.42574053118, 50533.74028608087, -0.364, -0.6920000000000001, 0.602, 192.0, 0.0, 0.0, 0.0, 0.0, 0.0, 0.0, 0.0, 0.0, 0.0, 1.6969585493893304E9, 0.0, 2023-10-10 14:22:29.389
243.0, -126380.69705733027, -126282.59525091593, -110840.53496605575, -125620.93891154992, -88475.06653965314, -88512.03632498221, -134688.46049171215, 50427.39068596252, -0.366, -0.6920000000000001, 0.6, 192.0, 244.0, 144.0, 234.0, 96.0, 18.0, 192.0, 0.0, 0.0, 0.0, 1.696958549393365E9, 0.0, 2023-10-10 14:22:29.393
244.0, -126330.02565265009, -126215.02592742753, -110751.30680219017, -125558.19756486388, -88405.0161725302, -88446.50101023926, -134636.49268585356, 50496.54698330724, -0.366, -0.6920000000000001, 0.6, 192.0, 0.0, 0.0, 0.0, 0.0, 0.0, 0.0, 0.0, 0.0, 0.0, 1.6969585493983364E9, 0.0, 2023-10-10 14:22:29.398
245.0, -126218.42339258474, -126091.97957420106, -110611.56369585558, -125431.37376682446, -88283.0874065265, -88320.54893023359, -134517.26848092896, 50623.191967391016, -0.366, -0.6920000000000001, 0.6, 192.0, 0.0, 0.0, 0.0, 0.0, 0.0, 0.0, 0.0, 0.0, 0.0, 1.6969585494023771E9, 0.0, 2023-10-10 14:22:29.402
246.0, -126251.90630577879, -126144.19324924867, -110695.0251096517, -125480.21232845931, -88347.86276195798, -88379.28931466214, -134566.15174605272, 50553.25335899036, -0.366, -0.6920000000000001, 0.6, 192.0, 0.0, 0.0, 0.0, 0.0, 0.0, 0.0, 0.0, 0.0, 0.0, 1.6969585494066343E9, 0.0, 2023-10-10 14:22:29.406
247.0, -126350.43279533778, -126259.9529337827, -110839.03739917725, -125593.24510016979, -88477.6369902655, -88509.57763309212, -134680.70443638618, 50421.69099112642, -0.366, -0.6920000000000001, 0.6, 192.0, 0.0, 0.0, 0.0, 0.0, 0.0, 0.0, 0.0, 0.0, 0.0, 1.6969585494104052E9, 0.0, 2023-10-10 14:22:29.410
248.0, -126337.49113529816, -126230.2921688905, -110789.12595380854, -125561.50562304327, -88448.40090851796, -88478.30754259916, -134656.76571807454, 50459.82306716718, -0.366, -0.6920000000000001, 0.6, 192.0, 0.0, 0.0, 0.0, 0.0, 0.0, 0.0, 0.0, 0.0, 0.0, 1.6969585494136715E9, 0.0, 2023-10-10 14:22:29.413
249.0, -126241.22217192916, -126120.47804838158, -110631.88143156546, -125447.77994725466, -88332.10478211699, -88350.61202652598, -134538.03325152796, 50588.189135574, -0.366, -0.6920000000000001, 0.6, 192.0, 0.0, 0.0, 0.0, 0.0, 0.0, 0.0, 0.0, 0.0, 0.0, 1.696958549417386E9, 0.0, 2023-10-10 14:22:29.417
250.0, -126244.91020976428, -126138.29238871246, -110667.64422269395, -125466.9577439973, -88355.88703821744, -88365.78886101114, -134545.6104928983, 50563.87043760663, -0.366, -0.6920000000000001, 0.6, 192.0, 0.0, 0.0, 0.0, 0.0, 0.0, 0.0, 0.0, 0.0, 0.0, 1.696958549421434E9, 0.0, 2023-10-10 14:22:29.421
251.0, -126334.2724840966, -126245.71487256467, -110803.4087185155, -125588.86415825656, -88471.80318496266, -88485.28128686921, -134660.74432858758, 50433.78328487674, -0.366, -0.6920000000000001, 0.6, 192.0, 0.0, 0.0, 0.0, 0.0, 0.0, 0.0, 0.0, 0.0, 0.0, 1.6969585494254203E9, 0.0, 2023-10-10 14:22:29.425
252.0, -126354.63492329538, -126250.38638715583, -110799.07248009116, -125604.644489842, -88470.5291355287, -88495.45133059638, -134678.8939450853, 50426.451912695404, -0.366, -0.6920000000000001, 0.6, 192.0, 0.0, 0.0, 0.0, 0.0, 0.0, 0.0, 0.0, 0.0, 0.0, 1.6969585494304385E9, 0.0, 2023-10-10 14:22:29.430
253.0, -126256.66722734777, -126126.78124031799, -110647.08061779507, -125467.13655795295, -88329.26611057116, -88359.26215163019, -134540.93897830712, 50581.75183317088, -0.368, -0.6900000000000001, 0.602, 192.0, 244.0, 128.0, 234.0, 112.0, 18.0, 208.0, 0.0, 0.0, 0.0, 1.696958549434401E9, 0.0, 2023-10-10 14:22:29.434
254.0, -126240.93159925123, -126114.62189133429, -110647.12532128398, -125454.97720896927, -88324.97457563574, -88346.63341601293, -134517.67081232916, 50596.77220544484, -0.368, -0.6900000000000001, 0.602, 192.0, 0.0, 0.0, 0.0, 0.0, 0.0, 0.0, 0.0, 0.0, 0.0, 1.6969585494373803E9, 0.0, 2023-10-10 14:22:29.437
255.0, -126342.02853942258, -126236.41654687126, -110796.3455672676, -125587.21012916687, -88462.70602496935, -88469.85858319505, -134645.99217724707, 50462.81820092419, -0.368, -0.6900000000000001, 0.602, 192.0, 0.0, 0.0, 0.0, 0.0, 0.0, 0.0, 0.0, 0.0, 0.0, 1.6969585494414752E9, 0.0, 2023-10-10 14:22:29.441
0.0, -126376.09259797247, -126277.54375666902, -110835.95285844241, -125626.1021645191, -88506.80601677966, -88516.5960808511, -134696.1494918048, 50423.21090974938, -0.368, -0.6900000000000001, 0.602, 192.0, 0.0, 0.0, 0.0, 0.0, 0.0, 0.0, 0.0, 0.0, 0.0, 1.6969585494454265E9, 0.0, 2023-10-10 14:22:29.445
1.0, -126275.64385839032, -126154.83267960939, -110692.3205485726, -125492.14815999844, -88373.67902680386, -88389.6605240894, -134574.42189150117, 50559.489495693386, -0.368, -0.6900000000000001, 0.602, 192.0, 0.0, 0.0, 0.0, 0.0, 0.0, 0.0, 0.0, 0.0, 0.0, 1.6969585494493985E9, 0.0, 2023-10-10 14:22:29.449
2.0, -126225.41948859925, -126108.83278952037, -110639.19045200235, -125437.63225527195, -88321.77827617864, -88327.25445357019, -134517.46964662906, 50609.624458506645, -0.368, -0.6900000000000001, 0.602, 192.0, 0.0, 0.0, 0.0, 0.0, 0.0, 0.0, 0.0, 0.0, 0.0, 1.6969585494534433E9, 0.0, 2023-10-10 14:22:29.453
3.0, -126315.96640538769, -126227.81112525596, -110791.00350034279, -125561.41621606544, -88446.59041721707, -88453.05007136466, -134634.9280637417, 50473.2117620959, -0.368, -0.6900000000000001, 0.602, 192.0, 0.0, 0.0, 0.0, 0.0, 0.0, 0.0, 0.0, 0.0, 0.0, 1.6969585494584217E9, 0.0, 2023-10-10 14:22:29.458
4.0, -126388.45311265627, -126293.6593644213, -110864.85366402313, -125639.91554259248, -88518.76420006326, -88533.00226128129, -134716.22135832565, 50395.04771173569, -0.368, -0.6900000000000001, 0.602, 192.0, 0.0, 0.0, 0.0, 0.0, 0.0, 0.0, 0.0, 0.0, 0.0, 1.69695854946248E9, 0.0, 2023-10-10 14:22:29.462
5.0, -126307.60685296141, -126188.31559280344, -110718.15916516294, -125534.03532910769, -88404.21150972981, -88419.25423374823, -134614.69973500964, 50516.41768412801, -0.368, -0.6900000000000001, 0.602, 192.0, 0.0, 0.0, 0.0, 0.0, 0.0, 0.0, 0.0, 0.0, 0.0, 1.6969585494654489E9, 0.0, 2023-10-10 14:22:29.465
6.0, -126221.2397123861, -126104.00481271802, -110635.70357986732, -125432.42429881386, -88315.09510458651, -88323.81228492408, -134507.56782383536, 50613.4466068085, -0.368, -0.6900000000000001, 0.602, 192.0, 0.0, 0.0, 0.0, 0.0, 0.0, 0.0, 0.0, 0.0, 0.0, 1.6969585494695013E9, 0.0, 2023-10-10 14:22:29.469
7.0, -126292.09474230943, -126194.57408125092, -110738.85688052856, -125530.39199476148, -88417.66725989191, -88419.45539944833, -134595.83486268937, 50498.312771119214, -0.368, -0.6900000000000001, 0.602, 192.0, 0.0, 0.0, 0.0, 0.0, 0.0, 0.0, 0.0, 0.0, 0.0, 1.6969585494734411E9, 0.0, 2023-10-10 14:22:29.473
8.0, -126367.1295484459, -126276.33676246843, -110828.44267230543, -125619.77662083825, -88502.84975801109, -88508.01301098026, -134687.20879402268, 50404.25663045128, -0.368, -0.6900000000000001, 0.596, 192.0, 244.0, 128.0, 234.0, 112.0, 18.0, 160.0, 0.0, 0.0, 0.0, 1.696958549477517E9, 0.0, 2023-10-10 14:22:29.477
9.0, -126324.6165304919, -126213.86363671586, -110744.10954047556, -125550.91089617145, -88431.81591413211, -88435.39219324496, -134621.9193484687, 50492.05428267173, -0.368, -0.6900000000000001, 0.596, 192.0, 0.0, 0.0, 0.0, 0.0, 0.0, 0.0, 0.0, 0.0, 0.0, 1.6969585494815023E9, 0.0, 2023-10-10 14:22:29.481
10.0, -126235.79069802651, -126114.68894656765, -110632.55198389912, -125442.92961870786, -88329.22140708225, -88326.76271519218, -134511.76995179296, 50609.6468102511, -0.368, -0.6900000000000001, 0.596, 192.0, 0.0, 0.0, 0.0, 0.0, 0.0, 0.0, 0.0, 0.0, 0.0, 1.6969585494864824E9, 0.0, 2023-10-10 14:22:29.486
11.0, -126279.86833809238, -126183.06293285644, -110718.29327562968, -125512.5776544306, -88405.79848358614, -88400.7693410837, -134576.99234211355, 50521.2233091859, -0.368, -0.6900000000000001, 0.596, 192.0, 0.0, 0.0, 0.0, 0.0, 0.0, 0.0, 0.0, 0.0, 0.0, 1.6969585494905906E9, 0.0, 2023-10-10 14:22:29.490
12.0, -126364.71556004471, -126275.91207932378, -110831.88484095155, -125621.16242899447, -88507.47656911332, -88511.81280753766, -134687.0523318115, 50405.3965694185, -0.368, -0.6900000000000001, 0.596, 192.0, 0.0, 0.0, 0.0, 0.0, 0.0, 0.0, 0.0, 0.0, 0.0, 1.696958549493499E9, 0.0, 2023-10-10 14:22:29.493
13.0, -126338.56401903201, -126230.78390726852, -110778.91120659247, -125573.32969586011, -88456.06755686612, -88468.96451341684, -134652.40712790575, 50458.14668633303, -0.368, -0.6900000000000001, 0.596, 192.0, 0.0, 0.0, 0.0, 0.0, 0.0, 0.0, 0.0, 0.0, 0.0, 1.6969585494975047E9, 0.0, 2023-10-10 14:22:29.497
14.0, -126244.37376789736, -126121.68504258216, -110653.67438240939, -125452.69733103483, -88337.98329090874, -88349.67325325886, -134534.6581381152, 50587.27271405134, -0.368, -0.6900000000000001, 0.596, 192.0, 0.0, 0.0, 0.0, 0.0, 0.0, 0.0, 0.0, 0.0, 0.0, 1.6969585495016704E9, 0.0, 2023-10-10 14:22:29.501
15.0, -126266.77021584156, -126156.39730172126, -110690.1747811049, -125488.43777041887, -88383.44673913083, -88385.45839613181, -134565.59295244134, 50540.758733839844, -0.368, -0.6900000000000001, 0.596, 192.0, 0.0, 0.0, 0.0, 0.0, 0.0, 0.0, 0.0, 0.0, 0.0, 1.6969585495055258E9, 0.0, 2023-10-10 14:22:29.505
16.0, -126350.61160929342, -126256.04137850303, -110815.2551430768, -125590.87581525753, -88492.1879759059, -88494.87018524054, -134666.4216716792, 50424.440255694426, -0.368, -0.6900000000000001, 0.596, 192.0, 0.0, 0.0, 0.0, 0.0, 0.0, 0.0, 0.0, 0.0, 0.0, 1.6969585495095024E9, 0.0, 2023-10-10 14:22:29.509
17.0, -126343.61551327891, -126239.90341900628, -110789.66239567548, -125572.2344603818, -88468.11514712754, -88473.65837975245, -134652.98827326158, 50457.74435493283, -0.368, -0.6900000000000001, 0.596, 192.0, 0.0, 0.0, 0.0, 0.0, 0.0, 0.0, 0.0, 0.0, 0.0, 1.6969585495145311E9, 0.0, 2023-10-10 14:22:29.514
18.0, -126260.802300072, -126140.43815618017, -110664.17970230339, -125463.18029918437, -88352.82484922706, -88358.01045394069, -134544.13527776423, 50592.704187953976, -0.366, -0.6900000000000001, 0.6, 192.0, 244.0, 144.0, 234.0, 112.0, 18.0, 192.0, 0.0, 0.0, 0.0, 1.696958549518591E9, 0.0, 2023-10-10 14:22:29.518
19.0, -126268.78187284255, -126156.35259823235, -110689.95126366035, -125484.39210467246, -88381.97152399678, -88373.88019250396, -134555.17703952515, 50580.34367327019, -0.366, -0.6900000000000001, 0.6, 192.0, 0.0, 0.0, 0.0, 0.0, 0.0, 0.0, 0.0, 0.0, 0.0, 1.696958549521518E9, 0.0, 2023-10-10 14:22:29.521
20.0, -126358.90410648634, -126264.87031756286, -110813.71287270938, -125600.77763805124, -88504.3920283785, -88492.14327241699, -134664.6782356117, 50455.41977350948, -0.366, -0.6900000000000001, 0.6, 192.0, 0.0, 0.0, 0.0, 0.0, 0.0, 0.0, 0.0, 0.0, 0.0, 1.6969585495255084E9, 0.0, 2023-10-10 14:22:29.525
21.0, -126373.20922293774, -126272.06757927747, -110814.04814887622, -125608.26547244376, -88507.1412929465, -88503.25208941128, -134673.99891304958, 50449.65302344001, -0.366, -0.6900000000000001, 0.6, 192.0, 0.0, 0.0, 0.0, 0.0, 0.0, 0.0, 0.0, 0.0, 0.0, 1.696958549529555E9, 0.0, 2023-10-10 14:22:29.529
22.0, -126286.5068061956, -126164.04159832497, -110686.75496420324, -125485.08500875057, -88380.98804724075, -88380.74217805173, -134555.19939126962, 50580.321321525735, -0.366, -0.6900000000000001, 0.6, 192.0, 0.0, 0.0, 0.0, 0.0, 0.0, 0.0, 0.0, 0.0, 0.0, 1.6969585495336645E9, 0.0, 2023-10-10 14:22:29.533
23.0, -126242.22800042963, -126130.93866478666, -110655.618984177, -125448.47285133277, -88342.4536397998, -88337.91623567537, -134520.3530216638, 50603.07539738124, -0.366, -0.6900000000000001, 0.6, 192.0, 0.0, 0.0, 0.0, 0.0, 0.0, 0.0, 0.0, 0.0, 0.0, 1.6969585495375514E9, 0.0, 2023-10-10 14:22:29.537
24.0, -126331.99260616215, -126242.45151787419, -110792.76928815477, -125576.30247787267, -88469.18803086139, -88466.19289710438, -134652.6306453503, 50452.46934324138, -0.366, -0.6900000000000001, 0.6, 192.0, 0.0, 0.0, 0.0, 0.0, 0.0, 0.0, 0.0, 0.0, 0.0, 1.6969585495420241E9, 0.0, 2023-10-10 14:22:29.542
25.0, -126354.09848142845, -126261.96459078368, -110814.51753550977, -125602.02933574074, -88492.81382475064, -88498.40176086448, -134686.2923725, 50420.03696203673, -0.366, -0.6900000000000001, 0.6, 192.0, 0.0, 0.0, 0.0, 0.0, 0.0, 0.0, 0.0, 0.0, 0.0, 1.6969585495465896E9, 0.0, 2023-10-10 14:22:29.546
26.0, -126264.53504139604, -126144.08149052638, -110672.74042042976, -125483.34157268306, -88373.70137854831, -88374.7072070488, -134573.12549032277, 50545.944338553476, -0.366, -0.6900000000000001, 0.6, 192.0, 0.0, 0.0, 0.0, 0.0, 0.0, 0.0, 0.0, 0.0, 0.0, 1.696958549549723E9, 0.0, 2023-10-10 14:22:29.549
27.0, -126214.35537509387, -126091.93487071215, -110622.42664366087, -125426.74695572222, -88329.2437588267, -88315.78800866462, -134507.70193430208, 50591.69835945348, -0.366, -0.6900000000000001, 0.6, 192.0, 0.0, 0.0, 0.0, 0.0, 0.0, 0.0, 0.0, 0.0, 0.0, 1.6969585495536408E9, 0.0, 2023-10-10 14:22:29.553
28.0, -126298.55439645701, -126196.49633127409, -110753.67608710243, -125549.50273627076, -88458.43684177838, -88434.34166125556, -134625.36151711483, 50455.3080147872, -0.36, -0.686, 0.602, 192.0, 244.0, 192.0, 234.0, 144.0, 18.0, 208.0, 0.0, 0.0, 0.0, 1.6969585495575385E9, 0.0, 2023-10-10 14:22:29.557
29.0, -126360.53578383158, -126260.31056169399, -110821.93831466894, -125622.65999587298, -88529.85066531309, -88504.9955254788, -134701.78213140753, 50385.81644127565, -0.36, -0.686, 0.602, 192.0, 0.0, 0.0, 0.0, 0.0, 0.0, 0.0, 0.0, 0.0, 0.0, 1.6969585495615735E9, 0.0, 2023-10-10 14:22:29.561
30.0, -126302.08597208095, -126177.54205197598, -110712.41476683793, -125528.49209648278, -88433.69346066636, -88412.25813773372, -134611.1681593857, 50490.15438439303, -0.36, -0.686, 0.602, 192.0, 0.0, 0.0, 0.0, 0.0, 0.0, 0.0, 0.0, 0.0, 0.0, 1.696958549565582E9, 0.0, 2023-10-10 14:22:29.565
31.0, -126231.40975611327, -126099.89209173825, -110630.8085478316, -125440.22505762876, -88347.75100323571, -88323.23113956823, -134517.0002599955, 50571.939417354995, -0.36, -0.686, 0.602, 192.0, 0.0, 0.0, 0.0, 0.0, 0.0, 0.0, 0.0, 0.0, 0.0, 1.6969585495705757E9, 0.0, 2023-10-10 14:22:29.570
32.0, -126287.9596695852, -126180.11250258834, -110721.08724368659, -125525.76518365923, -88438.74495491326, -88398.5118148937, -134592.68326672117, 50475.17871560797, -0.36, -0.686, 0.602, 192.0, 0.0, 0.0, 0.0, 0.0, 0.0, 0.0, 0.0, 0.0, 0.0, 1.6969585495736816E9, 0.0, 2023-10-10 14:22:29.573
33.0, -126381.76994106412, -126281.83529160444, -110827.23567810484, -125630.46075468788, -88546.14508702101, -88500.27930739873, -134694.78603539302, 50370.28197887921, -0.36, -0.686, 0.602, 192.0, 0.0, 0.0, 0.0, 0.0, 0.0, 0.0, 0.0, 0.0, 0.0, 1.6969585495766E9, 0.0, 2023-10-10 14:22:29.576
34.0, -126336.84293470895, -126221.39617459729, -110751.41856091244, -125556.54353577418, -88476.40764432045, -88434.45341997784, -134623.7298397696, 50460.24775031183, -0.36, -0.686, 0.602, 192.0, 0.0, 0.0, 0.0, 0.0, 0.0, 0.0, 0.0, 0.0, 0.0, 1.6969585495816033E9, 0.0, 2023-10-10 14:22:29.581
35.0, -126235.32131139295, -126108.40810637572, -110631.4120449319, -125438.2581041167, -88360.22327664177, -88318.67138369934, -134502.248108655, 50594.939362399506, -0.36, -0.686, 0.602, 192.0, 0.0, 0.0, 0.0, 0.0, 0.0, 0.0, 0.0, 0.0, 0.0, 1.6969585495856438E9, 0.0, 2023-10-10 14:22:29.585
36.0, -126282.5058439381, -126175.41863625273, -110714.24760988327, -125507.90613983944, -88432.55352169914, -88392.43214040187, -134567.82812688686, 50512.05909395923, -0.36, -0.686, 0.602, 192.0, 0.0, 0.0, 0.0, 0.0, 0.0, 0.0, 0.0, 0.0, 0.0, 1.6969585495896215E9, 0.0, 2023-10-10 14:22:29.589
37.0, -126376.1820049503, -126287.28911725154, -110841.20551838941, -125621.47535341686, -88549.02846205575, -88514.60677559457, -134687.4993667006, 50385.481165108824, -0.36, -0.686, 0.602, 192.0, 0.0, 0.0, 0.0, 0.0, 0.0, 0.0, 0.0, 0.0, 0.0, 1.6969585495937176E9, 0.0, 2023-10-10 14:22:29.593
38.0, -126343.28023711208, -126231.40975611327, -110764.22611048534, -125572.1897568929, -88491.94210671689, -88459.75559470124, -134647.48974412557, 50447.708421672396, -0.36, -0.686, 0.602, 192.0, 0.0, 0.0, 0.0, 0.0, 0.0, 0.0, 0.0, 0.0, 0.0, 1.6969585495986402E9, 0.0, 2023-10-10 14:22:29.598
39.0, -126223.5866455539, -126093.05245793491, -110605.2605039192, -125432.6031127695, -88345.76169797918, -88315.20686330878, -134507.81369302436, 50603.09774912569, -0.36, -0.686, 0.604, 192.0, 244.0, 192.0, 234.0, 144.0, 18.0, 224.0, 0.0, 0.0, 0.0, 1.6969585496016753E9, 0.0, 2023-10-10 14:22:29.601
40.0, -126241.40098588479, -126131.18453397567, -110664.09029532556, -125474.64674408994, -88393.52737588018, -88352.89190446043, -134544.0011672975, 50560.5847311717, -0.36, -0.686, 0.604, 192.0, 0.0, 0.0, 0.0, 0.0, 0.0, 0.0, 0.0, 0.0, 0.0, 1.6969585496046357E9, 0.0, 2023-10-10 14:22:29.604
41.0, -126342.29676035605, -126254.23088720214, -110814.15990759849, -125602.56577760766, -88526.78847632272, -88479.84981296657, -134672.21077349316, 50424.149683016505, -0.36, -0.686, 0.604, 192.0, 0.0, 0.0, 0.0, 0.0, 0.0, 0.0, 0.0, 0.0, 0.0, 1.6969585496096835E9, 0.0, 2023-10-10 14:22:29.609
42.0, -126363.48621409968, -126268.71481760917, -110814.07050062067, -125611.12649573405, -88533.62811012604, -88485.75067350277, -134685.0853782994, 50420.90868007048, -0.36, -0.686, 0.604, 192.0, 0.0, 0.0, 0.0, 0.0, 0.0, 0.0, 0.0, 0.0, 0.0, 1.6969585496137905E9, 0.0, 2023-10-10 14:22:29.613
43.0, -126271.7546548551, -126144.86380158232, -110661.83276913558, -125490.22590997528, -88408.1230650095, -88363.03959644314, -134564.07303381836, 50557.07550729222, -0.36, -0.686, 0.604, 192.0, 0.0, 0.0, 0.0, 0.0, 0.0, 0.0, 0.0, 0.0, 0.0, 1.696958549617652E9, 0.0, 2023-10-10 14:22:29.617
44.0, -126251.16869821177, -126129.776374075, -110652.69090565335, -125477.19484295785, -88399.5623468831, -88345.35936657898, -134542.36948995228, 50565.54681844078, -0.36, -0.686, 0.604, 192.0, 0.0, 0.0, 0.0, 0.0, 0.0, 0.0, 0.0, 0.0, 0.0, 1.696958549621734E9, 0.0, 2023-10-10 14:22:29.621
45.0, -126354.70197852874, -126257.53894538153, -110805.19685807191, -125609.36070792208, -88538.76901135076, -88479.51453679975, -134672.9930845491, 50410.11278749857, -0.36, -0.686, 0.604, 192.0, 0.0, 0.0, 0.0, 0.0, 0.0, 0.0, 0.0, 0.0, 0.0, 1.6969585496256735E9, 0.0, 2023-10-10 14:22:29.625
46.0, -126370.75053104766, -126270.52530891006, -110810.27070406327, -125620.64833887201, -88548.8496481001, -88489.86339448254, -134688.97458183463, 50399.11572922656, -0.36, -0.686, 0.604, 192.0, 0.0, 0.0, 0.0, 0.0, 0.0, 0.0, 0.0, 0.0, 0.0, 1.6969585496296952E9, 0.0, 2023-10-10 14:22:29.629
47.0, -126295.40280048881, -126166.14266230377, -110679.75886818873, -125497.69139262335, -88435.39219324496, -88372.114404692, -134568.1186995648, 50528.82290230071, -0.36, -0.686, 0.604, 192.0, 0.0, 0.0, 0.0, 0.0, 0.0, 0.0, 0.0, 0.0, 0.0, 1.696958549632741E9, 0.0, 2023-10-10 14:22:29.632
48.0, -126261.49520415011, -126136.63835962277, -110654.5684521876, -125461.68273230587, -88406.2678702197, -88332.66357572837, -134523.32580367636, 50563.825734117716, -0.36, -0.686, 0.604, 192.0, 0.0, 0.0, 0.0, 0.0, 0.0, 0.0, 0.0, 0.0, 0.0, 1.6969585496376953E9, 0.0, 2023-10-10 14:22:29.637
49.0, -126348.06351042552, -126241.80331728498, -110794.06568933318, -125580.07992268562, -88524.77681932173, -88449.0267573627, -134636.44798236465, 50431.32459298666, -0.362, -0.6900000000000001, 0.598, 192.0, 244.0, 176.0, 234.0, 112.0, 18.0, 176.0, 0.0, 0.0, 0.0, 1.6969585496416712E9, 0.0, 2023-10-10 14:22:29.641
50.0, -126400.47835117321, -126286.37269572887, -110834.47764330836, -125628.24793198681, -88573.4589187454, -88503.22973766681, -134685.86768935533, 50381.703720295875, -0.362, -0.6900000000000001, 0.598, 192.0, 0.0, 0.0, 0.0, 0.0, 0.0, 0.0, 0.0, 0.0, 0.0, 1.696958549645722E9, 0.0, 2023-10-10 14:22:29.645
51.0, -126317.44162052174, -126185.61103172434, -110707.51973480222, -125521.09366906807, -88467.10931862704, -88396.38839917045, -134581.35093228234, 50502.17962290998, -0.362, -0.6900000000000001, 0.598, 192.0, 0.0, 0.0, 0.0, 0.0, 0.0, 0.0, 0.0, 0.0, 0.0, 1.696958549649716E9, 0.0, 2023-10-10 14:22:29.649
52.0, -126251.01223600058, -126118.89107452525, -110631.99319028774, -125449.18810715535, -88402.69159110685, -88319.2972325441, -134500.19174816512, 50578.42142324703, -0.362, -0.6900000000000001, 0.598, 192.0, 0.0, 0.0, 0.0, 0.0, 0.0, 0.0, 0.0, 0.0, 0.0, 1.6969585496547327E9, 0.0, 2023-10-10 14:22:29.654
53.0, -126324.63888223635, -126220.65856703027, -110762.97441279584, -125551.71555897183, -88520.88761578652, -88432.24059727676, -134597.8688714348, 50451.37410776307, -0.362, -0.6900000000000001, 0.598, 192.0, 0.0, 0.0, 0.0, 0.0, 0.0, 0.0, 0.0, 0.0, 0.0, 1.69695854965776E9, 0.0, 2023-10-10 14:22:29.657
54.0, -126374.97501074971, -126280.76240787058, -110834.87997470856, -125620.62598712755, -88593.88841317754, -88506.02370572374, -134673.6859886272, 50374.03707194771, -0.362, -0.6900000000000001, 0.598, 192.0, 0.0, 0.0, 0.0, 0.0, 0.0, 0.0, 0.0, 0.0, 0.0, 1.696958549660751E9, 0.0, 2023-10-10 14:22:29.660
55.0, -126305.72930642717, -126192.85299692786, -110726.71988328933, -125531.44252675088, -88502.71564754435, -88410.55940515512, -134596.14778711175, 50476.430413297465, -0.362, -0.6900000000000001, 0.598, 192.0, 0.0, 0.0, 0.0, 0.0, 0.0, 0.0, 0.0, 0.0, 0.0, 1.6969585496647344E9, 0.0, 2023-10-10 14:22:29.664
56.0, -126232.7508607806, -126113.8172285339, -110633.4684054218, -125451.08800543405, -88422.20466401633, -88320.95126163379, -134518.47547512955, 50563.02107131733, -0.362, -0.6900000000000001, 0.598, 192.0, 0.0, 0.0, 0.0, 0.0, 0.0, 0.0, 0.0, 0.0, 0.0, 1.6969585496697745E9, 0.0, 2023-10-10 14:22:29.669
57.0, -126294.3075650105, -126195.75872370705, -110741.62849684102, -125535.35408203055, -88512.43865638241, -88410.8723295775, -134602.83095870388, 50457.99022412184, -0.362, -0.6900000000000001, 0.598, 192.0, 0.0, 0.0, 0.0, 0.0, 0.0, 0.0, 0.0, 0.0, 0.0, 1.6969585496738093E9, 0.0, 2023-10-10 14:22:29.673
58.0, -126381.09938873046, -126290.9548033422, -110849.54271907124, -125635.04286230123, -88608.50645405131, -88517.87013028505, -134704.50904423106, 50346.142094867486, -0.362, -0.6900000000000001, 0.598, 192.0, 0.0, 0.0, 0.0, 0.0, 0.0, 0.0, 0.0, 0.0, 0.0, 1.6969585496777525E9, 0.0, 2023-10-10 14:22:29.677
59.0, -126340.68743475527, -126234.53900033701, -110760.67218311694, -125574.35787610506, -88538.88077007304, -88455.79933593266, -134649.45669763765, 50417.31004921318, -0.368, -0.6900000000000001, 0.602, 192.0, 244.0, 128.0, 234.0, 112.0, 18.0, 208.0, 0.0, 0.0, 0.0, 1.696958549681751E9, 0.0, 2023-10-10 14:22:29.681
60.0, -126231.78973576901, -126115.40420239023, -110627.96987628579, -125442.30376986311, -88409.12889350997, -88321.75592443418, -134515.27917567245, 50557.38843171459, -0.368, -0.6900000000000001, 0.602, 192.0, 0.0, 0.0, 0.0, 0.0, 0.0, 0.0, 0.0, 0.0, 0.0, 1.696958549685783E9, 0.0, 2023-10-10 14:22:29.685
61.0, -126265.13853849634, -126164.19806053616, -110695.71801372981, -125496.97613680079, -88463.24246683628, -88368.20284941231, -134560.00501632752, 50497.70927401892, -0.368, -0.6900000000000001, 0.602, 192.0, 0.0, 0.0, 0.0, 0.0, 0.0, 0.0, 0.0, 0.0, 0.0, 1.696958549688769E9, 0.0, 2023-10-10 14:22:29.688
62.0, -126359.44054835328, -126275.33093396795, -110826.76629147129, -125614.7027748469, -88580.09738684862, -88486.24241188078, -134675.16120376126, 50368.96322595635, -0.368, -0.6900000000000001, 0.602, 192.0, 0.0, 0.0, 0.0, 0.0, 0.0, 0.0, 0.0, 0.0, 0.0, 1.6969585496937952E9, 0.0, 2023-10-10 14:22:29.693
63.0, -126348.24232438116, -126250.34168366692, -110787.42722122994, -125577.59887905109, -88545.56394166517, -88456.11226035503, -134642.0806219674, 50408.57051713116, -0.368, -0.6900000000000001, 0.602, 192.0, 0.0, 0.0, 0.0, 0.0, 0.0, 0.0, 0.0, 0.0, 0.0, 1.6969585496978416E9, 0.0, 2023-10-10 14:22:29.697
64.0, -126259.1482709823, -126141.44398468066, -110672.6286617075, -125455.64776130293, -88427.21145477433, -88338.38562230892, -134520.82240829736, 50530.968669768416, -0.368, -0.6900000000000001, 0.602, 192.0, 0.0, 0.0, 0.0, 0.0, 0.0, 0.0, 0.0, 0.0, 0.0, 1.696958549701792E9, 0.0, 2023-10-10 14:22:29.701
65.0, -126277.16377701328, -126173.94342111867, -110707.92206620242, -125497.82550309009, -88470.90911518445, -88375.53422159365, -134559.42387097166, 50478.4644220429, -0.368, -0.6900000000000001, 0.602, 192.0, 0.0, 0.0, 0.0, 0.0, 0.0, 0.0, 0.0, 0.0, 0.0, 1.6969585497057867E9, 0.0, 2023-10-10 14:22:29.705
66.0, -126369.25296416915, -126285.29981199502, -110822.94414316943, -125615.9991760253, -88589.44041603094, -88493.81965325114, -134679.4303869522, 50347.57260651262, -0.368, -0.6900000000000001, 0.602, 192.0, 0.0, 0.0, 0.0, 0.0, 0.0, 0.0, 0.0, 0.0, 0.0, 1.6969585497087808E9, 0.0, 2023-10-10 14:22:29.708
67.0, -126374.43856888278, -126275.57680315696, -110803.18520107094, -125604.17510320844, -88573.28010478975, -88486.98001944782, -134675.60823865037, 50357.40737407296, -0.368, -0.6900000000000001, 0.602, 192.0, 0.0, 0.0, 0.0, 0.0, 0.0, 0.0, 0.0, 0.0, 0.0, 1.6969585497130845E9, 0.0, 2023-10-10 14:22:29.713
68.0, -126261.4057971723, -126146.29431322747, -110659.48583596776, -125468.5670695981, -88440.35428051405, -88358.0998609185, -134545.94576906512, 50486.33223609117, -0.368, -0.6900000000000001, 0.602, 192.0, 0.0, 0.0, 0.0, 0.0, 0.0, 0.0, 0.0, 0.0, 0.0, 1.6969585497168016E9, 0.0, 2023-10-10 14:22:29.716
69.0, -126254.99084651363, -126150.45173769614, -110672.33808902957, -125471.53985161065, -88443.75174567125, -88350.83554397053, -134535.7980770824, 50479.80552671022, -0.368, -0.6920000000000001, 0.606, 192.0, 244.0, 128.0, 234.0, 96.0, 18.0, 240.0, 0.0, 0.0, 0.0, 1.6969585497208192E9, 0.0, 2023-10-10 14:22:29.720
70.0, -126357.36183611893, -126271.57584089946, -110824.53111702575, -125604.66684158646, -88579.7621106818, -88480.65447576696, -134662.59952337737, 50342.141132609984, -0.368, -0.6920000000000001, 0.606, 192.0, 0.0, 0.0, 0.0, 0.0, 0.0, 0.0, 0.0, 0.0, 0.0, 1.6969585497258308E9, 0.0, 2023-10-10 14:22:29.725
71.0, -126386.39675216637, -126295.73807665565, -110834.656457264, -125623.97874879585, -88605.04193366074, -88504.3920283785, -134688.6840091567, 50324.796178912664, -0.368, -0.6920000000000001, 0.606, 192.0, 0.0, 0.0, 0.0, 0.0, 0.0, 0.0, 0.0, 0.0, 0.0, 1.6969585497298424E9, 0.0, 2023-10-10 14:22:29.729
72.0, -126287.84791086293, -126172.44585424017, -110668.76180991672, -125491.41055243142, -88471.26674309574, -88364.82773599956, -134559.64738841623, 50472.98824465135, -0.368, -0.6920000000000001, 0.606, 192.0, 0.0, 0.0, 0.0, 0.0, 0.0, 0.0, 0.0, 0.0, 0.0, 1.6969585497338448E9, 0.0, 2023-10-10 14:22:29.733
73.0, -126249.31350342197, -126135.31960669991, -110636.19531824534, -125456.18420316986, -88439.30374852465, -88327.18739833683, -134520.1518559637, 50499.452710086436, -0.368, -0.6920000000000001, 0.606, 192.0, 0.0, 0.0, 0.0, 0.0, 0.0, 0.0, 0.0, 0.0, 0.0, 1.6969585497368524E9, 0.0, 2023-10-10 14:22:29.736
74.0, -126340.26275161061, -126250.09581447791, -110779.8499798596, -125576.92832671742, -88567.24513378683, -88451.30663529714, -134641.2312556781, 50358.27909210671, -0.368, -0.6920000000000001, 0.606, 192.0, 0.0, 0.0, 0.0, 0.0, 0.0, 0.0, 0.0, 0.0, 0.0, 1.6969585497408376E9, 0.0, 2023-10-10 14:22:29.740
75.0, -126392.8787580584, -126307.45039075022, -110840.60202128912, -125637.97094082487, -88622.94568096944, -88513.4444848829, -134707.57123322145, 50300.23161175628, -0.368, -0.6920000000000001, 0.606, 192.0, 0.0, 0.0, 0.0, 0.0, 0.0, 0.0, 0.0, 0.0, 0.0, 1.6969585497448623E9, 0.0, 2023-10-10 14:22:29.744
76.0, -126324.77299270309, -126218.0881164179, -110729.06681645714, -125535.3317302861, -88515.27732792823, -88413.15220751193, -134612.68807800868, 50411.74446484381, -0.368, -0.6920000000000001, 0.606, 192.0, 0.0, 0.0, 0.0, 0.0, 0.0, 0.0, 0.0, 0.0, 0.0, 1.6969585497488563E9, 0.0, 2023-10-10 14:22:29.748
77.0, -126251.86160228988, -126137.08539451187, -110646.03008580567, -125446.6623600319, -88431.70415540984, -88322.33706979002, -134519.63776584124, 50496.61403854061, -0.368, -0.6920000000000001, 0.606, 192.0, 0.0, 0.0, 0.0, 0.0, 0.0, 0.0, 0.0, 0.0, 0.0, 1.696958549753983E9, 0.0, 2023-10-10 14:22:29.753
78.0, -126330.20446660573, -126233.33200613642, -110762.77324709574, -125556.34237007408, -88545.0051480538, -88429.17840828639, -134622.4334385912, 50381.30138889568, -0.368, -0.6920000000000001, 0.606, 192.0, 0.0, 0.0, 0.0, 0.0, 0.0, 0.0, 0.0, 0.0, 0.0, 1.69695854975787E9, 0.0, 2023-10-10 14:22:29.757
79.0, -126403.40642969686, -126312.30071929703, -110859.01985872029, -125643.31300774969, -88633.60746307463, -88517.46779888486, -134710.298146045, 50300.49983268975, -0.368, -0.6920000000000001, 0.606, 192.0, 0.0, 0.0, 0.0, 0.0, 0.0, 0.0, 0.0, 0.0, 0.0, 1.696958549761903E9, 0.0, 2023-10-10 14:22:29.761
80.0, -126347.34825460296, -126231.0968316909, -110747.57406086613, -125558.17521311942, -88545.40747945398, -88428.48550420828, -134627.99902296055, 50403.92135428445, -0.366, -0.6960000000000001, 0.602, 192.0, 244.0, 144.0, 234.0, 64.0, 18.0, 208.0, 0.0, 0.0, 0.0, 1.696958549764887E9, 0.0, 2023-10-10 14:22:29.764
81.0, -126272.8051868445, -126143.56740040392, -110634.94362055584, -125463.26970616219, -88454.63704522098, -88327.9920611372, -134530.5454171354, 50505.934715978474, -0.366, -0.6960000000000001, 0.602, 192.0, 0.0, 0.0, 0.0, 0.0, 0.0, 0.0, 0.0, 0.0, 0.0, 1.696958549768886E9, 0.0, 2023-10-10 14:22:29.768
82.0, -126326.0693938815, -126219.87625597433, -110739.86270902905, -125538.37156753201, -88542.83702884162, -88405.8208353306, -134600.84165344737, 50420.52870041475, -0.366, -0.6960000000000001, 0.602, 192.0, 0.0, 0.0, 0.0, 0.0, 0.0, 0.0, 0.0, 0.0, 0.0, 1.6969585497729623E9, 0.0, 2023-10-10 14:22:29.772
83.0, -126394.04104877009, -126297.99560284564, -110827.5038990383, -125626.79506859722, -88630.16529442852, -88493.4843770843, -134690.60625917988, 50331.54640573817, -0.366, -0.6960000000000001, 0.602, 192.0, 0.0, 0.0, 0.0, 0.0, 0.0, 0.0, 0.0, 0.0, 0.0, 1.6969585497770252E9, 0.0, 2023-10-10 14:22:29.777
84.0, -126357.51829833012, -126241.87037251836, -110748.57988936662, -125564.85838471155, -88566.08284307514, -88432.33000425459, -134637.27499690952, 50401.7979385612, -0.366, -0.6960000000000001, 0.602, 192.0, 0.0, 0.0, 0.0, 0.0, 0.0, 0.0, 0.0, 0.0, 0.0, 1.6969585497819183E9, 0.0, 2023-10-10 14:22:29.781
85.0, -126265.58557338544, -126130.80455431994, -110625.57823962906, -125449.90336297792, -88454.21236207633, -88314.71512493076, -134521.4482571421, 50524.30784992073, -0.366, -0.6960000000000001, 0.602, 192.0, 0.0, 0.0, 0.0, 0.0, 0.0, 0.0, 0.0, 0.0, 0.0, 1.696958549785957E9, 0.0, 2023-10-10 14:22:29.785
86.0, -126292.54177719854, -126174.43515949669, -110687.8278479371, -125498.25018623474, -88507.63303132451, -88357.18343939584, -134563.78246114045, 50468.45084052692, -0.366, -0.6960000000000001, 0.602, 192.0, 0.0, 0.0, 0.0, 0.0, 0.0, 0.0, 0.0, 0.0, 0.0, 1.69695854979002E9, 0.0, 2023-10-10 14:22:29.790
87.0, -126393.63871736989, -126293.54760569903, -110824.28524783674, -125620.17895223845, -88633.24983516334, -88492.70206602837, -134687.81229112294, 50326.405504513445, -0.366, -0.6960000000000001, 0.602, 192.0, 0.0, 0.0, 0.0, 0.0, 0.0, 0.0, 0.0, 0.0, 0.0, 1.6969585497930615E9, 0.0, 2023-10-10 14:22:29.793
88.0, -126379.35595266295, -126267.1501954973, -110788.56716019717, -125586.38311462202, -88597.86702369059, -88465.2764755817, -134657.81625006394, 50366.92921721092, -0.366, -0.6960000000000001, 0.602, 192.0, 0.0, 0.0, 0.0, 0.0, 0.0, 0.0, 0.0, 0.0, 0.0, 1.6969585497969332E9, 0.0, 2023-10-10 14:22:29.796
89.0, -126265.27264896306, -126131.98919677606, -110624.37124542848, -125446.30473212061, -88453.16183008693, -88318.00083136569, -134520.86711178627, 50519.70339056294, -0.366, -0.6960000000000001, 0.602, 192.0, 0.0, 0.0, 0.0, 0.0, 0.0, 0.0, 0.0, 0.0, 0.0, 1.6969585498009317E9, 0.0, 2023-10-10 14:22:29.800
90.0, -126269.51948040957, -126152.55280167494, -110661.5645482021, -125467.40477888643, -88473.14428962997, -88336.82100019706, -134537.5638648944, 50488.92503844798, -0.372, -0.6920000000000001, 0.6, 192.0, 244.0, 96.0, 234.0, 96.0, 18.0, 192.0, 0.0, 0.0, 0.0, 1.696958549804938E9, 0.0, 2023-10-10 14:22:29.804
91.0, -126373.14216770437, -126274.68273337875, -110819.83725069014, -125600.73293456233, -88603.05262840423, -88480.07333041112, -134667.1816309907, 50345.04685938917, -0.372, -0.6920000000000001, 0.6, 192.0, 0.0, 0.0, 0.0, 0.0, 0.0, 0.0, 0.0, 0.0, 0.0, 1.6969585498089712E9, 0.0, 2023-10-10 14:22:29.808
92.0, -126378.26071718463, -126269.4077216873, -110805.3533202831, -125598.83303628363, -88596.32475332318, -88474.19482161937, -134669.01447403606, 50359.73195549631, -0.372, -0.6920000000000001, 0.6, 192.0, 0.0, 0.0, 0.0, 0.0, 0.0, 0.0, 0.0, 0.0, 0.0, 1.696958549813975E9, 0.0, 2023-10-10 14:22:29.813
93.0, -126273.16281475578, -126148.14950801725, -110647.25943175072, -125465.12490095198, -88465.2764755817, -88335.77046820766, -134538.81556258388, 50505.934715978474, -0.372, -0.6920000000000001, 0.6, 192.0, 0.0, 0.0, 0.0, 0.0, 0.0, 0.0, 0.0, 0.0, 0.0, 1.696958549816948E9, 0.0, 2023-10-10 14:22:29.816
94.0, -126244.19495394171, -126128.85995255232, -110638.63165839096, -125447.64583678792, -88457.00633013324, -88316.79383716511, -134516.77674255095, 50517.959954495425, -0.372, -0.6920000000000001, 0.6, 192.0, 0.0, 0.0, 0.0, 0.0, 0.0, 0.0, 0.0, 0.0, 0.0, 1.6969585498209708E9, 0.0, 2023-10-10 14:22:29.820
95.0, -126351.90801047183, -126255.16966046926, -110781.16873278246, -125587.50070184478, -88605.08663714965, -88454.21236207633, -134653.63647385078, 50369.45496433437, -0.372, -0.6920000000000001, 0.6, 192.0, 0.0, 0.0, 0.0, 0.0, 0.0, 0.0, 0.0, 0.0, 0.0, 1.6969585498250349E9, 0.0, 2023-10-10 14:22:29.825
96.0, -126394.17515923682, -126295.49220746664, -110814.18225934295, -125624.47048717386, -88643.3751754016, -88495.29486838519, -134697.4011894943, 50335.94969939586, -0.372, -0.6920000000000001, 0.6, 192.0, 0.0, 0.0, 0.0, 0.0, 0.0, 0.0, 0.0, 0.0, 0.0, 1.6969585498289812E9, 0.0, 2023-10-10 14:22:29.828
97.0, -126317.73219319967, -126194.6411364843, -110691.58294100559, -125517.07035506611, -88529.78361007973, -88384.51962286468, -134594.0690748774, 50459.48779100034, -0.372, -0.6920000000000001, 0.6, 192.0, 0.0, 0.0, 0.0, 0.0, 0.0, 0.0, 0.0, 0.0, 0.0, 1.6969585498329663E9, 0.0, 2023-10-10 14:22:29.832
98.0, -126257.2036692147, -126134.26907471051, -110636.8211670901, -125451.95972346781, -88467.7351674718, -88321.17477907834, -134523.03523099844, 50522.586765597676, -0.372, -0.6920000000000001, 0.6, 192.0, 0.0, 0.0, 0.0, 0.0, 0.0, 0.0, 0.0, 0.0, 0.0, 1.69695854983703E9, 0.0, 2023-10-10 14:22:29.837
99.0, -126333.53487652956, -126232.16971542475, -110765.61191864156, -125559.44926255337, -88573.16834606748, -88424.59630067305, -134625.40622060373, 50410.872746810055, -0.372, -0.6920000000000001, 0.6, 192.0, 0.0, 0.0, 0.0, 0.0, 0.0, 0.0, 0.0, 0.0, 0.0, 1.6969585498420024E9, 0.0, 2023-10-10 14:22:29.842
100.0, -126394.9351185483, -126292.83234987645, -110835.55052704221, -125626.88447557503, -88630.41116361752, -88489.59517354908, -134697.91527961675, 50341.805856443156, -0.376, -0.6940000000000001, 0.602, 192.0, 244.0, 64.0, 234.0, 80.0, 18.0, 208.0, 0.0, 0.0, 0.0, 1.696958549845024E9, 0.0, 2023-10-10 14:22:29.845
101.0, -126331.7690887176, -126203.96181392216, -110699.54016203168, -125527.30745402664, -88525.33561293312, -88388.65469558892, -134603.23329010408, 50444.04273558173, -0.376, -0.6940000000000001, 0.602, 192.0, 0.0, 0.0, 0.0, 0.0, 0.0, 0.0, 0.0, 0.0, 0.0, 1.6969585498491173E9, 0.0, 2023-10-10 14:22:29.849
102.0, -126258.99180877111, -126128.63643510776, -110608.70267256531, -125442.10260416301, -88443.26000729323, -88303.38279049192, -134517.98373675154, 50528.241756944866, -0.376, -0.6940000000000001, 0.602, 192.0, 0.0, 0.0, 0.0, 0.0, 0.0, 0.0, 0.0, 0.0, 0.0, 1.6969585498530283E9, 0.0, 2023-10-10 14:22:29.853
103.0, -126341.24622836665, -126240.3504538954, -110757.85586331558, -125556.78940496319, -88563.84766862962, -88416.59437615806, -134624.0874676809, 50407.00589501928, -0.376, -0.6940000000000001, 0.602, 192.0, 0.0, 0.0, 0.0, 0.0, 0.0, 0.0, 0.0, 0.0, 0.0, 1.696958549857088E9, 0.0, 2023-10-10 14:22:29.857
104.0, -126414.17997052432, -126322.7166322132, -110849.94505047143, -125645.95051359541, -88648.89605628206, -88498.75938877575, -134709.71700068915, 50316.347219508556, -0.376, -0.6940000000000001, 0.602, 192.0, 0.0, 0.0, 0.0, 0.0, 0.0, 0.0, 0.0, 0.0, 0.0, 1.696958549861067E9, 0.0, 2023-10-10 14:22:29.861
105.0, -126348.71171101472, -126231.90149449129, -110737.11344446105, -125555.35889331806, -88549.83312485613, -88410.24648073275, -134621.94170021318, 50411.52094739926, -0.376, -0.6940000000000001, 0.602, 192.0, 0.0, 0.0, 0.0, 0.0, 0.0, 0.0, 0.0, 0.0, 0.0, 1.6969585498650265E9, 0.0, 2023-10-10 14:22:29.865
106.0, -126272.73813161113, -126135.49842065555, -110610.15553595491, -125460.05105496063, -88452.17835333089, -88312.43524699632, -134525.0468879994, 50510.71798929191, -0.376, -0.6940000000000001, 0.602, 192.0, 0.0, 0.0, 0.0, 0.0, 0.0, 0.0, 0.0, 0.0, 0.0, 1.6969585498700595E9, 0.0, 2023-10-10 14:22:29.870
107.0, -126324.28125432508, -126207.87336920183, -110708.0785284136, -125525.80988714813, -88530.7447350913, -88387.38064615497, -134590.33633355336, 50428.84354935212, -0.376, -0.6940000000000001, 0.602, 192.0, 0.0, 0.0, 0.0, 0.0, 0.0, 0.0, 0.0, 0.0, 0.0, 1.6969585498730764E9, 0.0, 2023-10-10 14:22:29.873
108.0, -126395.69507785978, -126292.1617975428, -110814.51753550977, -125615.50743764729, -88616.8660064776, -88477.30171409866, -134677.61989565133, 50339.30246106416, -0.376, -0.6940000000000001, 0.602, 192.0, 0.0, 0.0, 0.0, 0.0, 0.0, 0.0, 0.0, 0.0, 0.0, 1.696958549877063E9, 0.0, 2023-10-10 14:22:29.877
109.0, -126362.21216466573, -126246.25131443159, -110754.16782548044, -125570.75924524775, -88571.71548267789, -88432.33000425459, -134640.89597951126, 50388.431595376926, -0.376, -0.6940000000000001, 0.602, 192.0, 0.0, 0.0, 0.0, 0.0, 0.0, 0.0, 0.0, 0.0, 0.0, 1.6969585498810678E9, 0.0, 2023-10-10 14:22:29.881
110.0, -126272.98400080015, -126144.88615332678, -110626.87464080748, -125462.01800847269, -88467.26578083824, -88317.97847962123, -134534.47932415956, 50497.64221878556, -0.374, -0.6920000000000001, 0.6, 192.0, 244.0, 80.0, 234.0, 96.0, 18.0, 192.0, 0.0, 0.0, 0.0, 1.6969585498850808E9, 0.0, 2023-10-10 14:22:29.885
111.0, -126300.29783252452, -126193.30003181697, -110697.61791200851, -125512.95763408634, -88526.16262747797, -88368.73929127924, -134580.03217935946, 50431.7045726424, -0.374, -0.6920000000000001, 0.6, 192.0, 0.0, 0.0, 0.0, 0.0, 0.0, 0.0, 0.0, 0.0, 0.0, 1.6969585498890963E9, 0.0, 2023-10-10 14:22:29.889
112.0, -126399.74074360619, -126308.97030937318, -110836.44459682044, -125637.00981581329, -88652.2264662059, -88490.95862996086, -134702.87736688583, 50308.322943249106, -0.374, -0.6920000000000001, 0.6, 192.0, 0.0, 0.0, 0.0, 0.0, 0.0, 0.0, 0.0, 0.0, 0.0, 1.696958549893078E9, 0.0, 2023-10-10 14:22:29.893
113.0, -126387.93902253378, -126287.3561724849, -110800.68180569194, -125607.97489976585, -88622.63275654707, -88468.1822023609, -134674.31183747196, 50356.93798743939, -0.374, -0.6920000000000001, 0.6, 192.0, 0.0, 0.0, 0.0, 0.0, 0.0, 0.0, 0.0, 0.0, 0.0, 1.6969585498981571E9, 0.0, 2023-10-10 14:22:29.898
114.0, -126303.9188151263, -126180.783054922, -110672.15927507392, -125486.40376167343, -88501.75452253276, -88352.69073876033, -134552.1148505348, 50486.33223609117, -0.374, -0.6920000000000001, 0.6, 192.0, 0.0, 0.0, 0.0, 0.0, 0.0, 0.0, 0.0, 0.0, 0.0, 1.6969585499010904E9, 0.0, 2023-10-10 14:22:29.901
115.0, -126298.39793424582, -126182.50413924507, -110684.54214150217, -125487.3201831961, -88509.51057785876, -88364.02307319916, -134544.8058300979, 50456.53736073225, -0.374, -0.6920000000000001, 0.6, 192.0, 0.0, 0.0, 0.0, 0.0, 0.0, 0.0, 0.0, 0.0, 0.0, 1.696958549905275E9, 0.0, 2023-10-10 14:22:29.905
116.0, -126404.07698203051, -126307.67390819477, -110839.39502708854, -125619.46369641587, -88646.19149520296, -88496.8818422415, -134674.4459479387, 50310.111082805524, -0.374, -0.6920000000000001, 0.6, 192.0, 0.0, 0.0, 0.0, 0.0, 0.0, 0.0, 0.0, 0.0, 0.0, 1.696958549909124E9, 0.0, 2023-10-10 14:22:29.909
117.0, -126410.22371175572, -126304.32114652648, -110822.51946002478, -125625.87864707454, -88643.01754749031, -88490.0869119271, -134693.66844817024, 50314.96141135233, -0.374, -0.6920000000000001, 0.6, 192.0, 0.0, 0.0, 0.0, 0.0, 0.0, 0.0, 0.0, 0.0, 0.0, 1.6969585499131577E9, 0.0, 2023-10-10 14:22:29.913
118.0, -126298.33087901246, -126166.92497335971, -110655.93190859938, -125485.68850585086, -88495.71955152984, -88347.50513404669, -134566.15174605272, 50459.19721832243, -0.374, -0.6920000000000001, 0.6, 192.0, 0.0, 0.0, 0.0, 0.0, 0.0, 0.0, 0.0, 0.0, 0.0, 1.6969585499170966E9, 0.0, 2023-10-10 14:22:29.917
119.0, -126261.09287274991, -126134.91727529971, -110633.60251588852, -125452.94320022383, -88466.125841871, -88316.39150576491, -134532.4453154141, 50476.586875508656, -0.374, -0.6920000000000001, 0.6, 192.0, 0.0, 0.0, 0.0, 0.0, 0.0, 0.0, 0.0, 0.0, 0.0, 1.6969585499211495E9, 0.0, 2023-10-10 14:22:29.921
120.0, -126355.32782737349, -126252.17452671225, -110777.63715715852, -125577.8447482401, -88598.82814870217, -88442.94708287086, -134656.8327733079, 50343.72810646631, -0.374, -0.6920000000000001, 0.6, 192.0, 0.0, 0.0, 0.0, 0.0, 0.0, 0.0, 0.0, 0.0, 0.0, 1.6969585499261172E9, 0.0, 2023-10-10 14:22:29.926
121.0, -126400.34424070649, -126293.2570330211, -110813.22113433137, -125618.68138535995, -88648.09139348166, -88483.60490603506, -134702.87736688583, 50314.51437646322, -0.368, -0.6920000000000001, 0.608, 192.0, 244.0, 128.0, 234.0, 96.0, 19.0, 0.0, 0.0, 0.0, 0.0, 1.6969585499291499E9, 0.0, 2023-10-10 14:22:29.929
122.0, -126325.24237933665, -126195.75872370705, -110685.68208046939, -125515.57278818761, -88547.70970913288, -88377.88115476146, -134600.93106042518, 50438.87948261255, -0.368, -0.6920000000000001, 0.608, 192.0, 0.0, 0.0, 0.0, 0.0, 0.0, 0.0, 0.0, 0.0, 0.0, 1.6969585499321415E9, 0.0, 2023-10-10 14:22:29.932
123.0, -126269.4524251762, -126143.34388295937, -110631.65791412091, -125458.48643284875, -88502.06744695514, -88318.0455348546, -134540.08961201782, 50493.32833210568, -0.368, -0.6920000000000001, 0.608, 192.0, 0.0, 0.0, 0.0, 0.0, 0.0, 0.0, 0.0, 0.0, 0.0, 1.6969585499371767E9, 0.0, 2023-10-10 14:22:29.937
124.0, -126351.48332732718, -126247.21243944317, -110768.33883146511, -125570.24515512529, -88626.11962868209, -88426.60795767403, -134648.58497960388, 50369.07498467863, -0.368, -0.6920000000000001, 0.608, 192.0, 0.0, 0.0, 0.0, 0.0, 0.0, 0.0, 0.0, 0.0, 0.0, 1.696958549941153E9, 0.0, 2023-10-10 14:22:29.941
125.0, -126401.35006920696, -126297.54856795652, -110824.39700655903, -125630.1031267766, -88685.39645497757, -88480.96740018933, -134714.34381179142, 50315.38609449698, -0.368, -0.6920000000000001, 0.608, 192.0, 0.0, 0.0, 0.0, 0.0, 0.0, 0.0, 0.0, 0.0, 0.0, 1.696958549945166E9, 0.0, 2023-10-10 14:22:29.945
126.0, -126324.72828921418, -126198.37387780832, -110696.36621431903, -125532.5824657181, -88581.0585118602, -88377.76939603918, -134626.97084271561, 50427.301278984705, -0.368, -0.6920000000000001, 0.608, 192.0, 0.0, 0.0, 0.0, 0.0, 0.0, 0.0, 0.0, 0.0, 0.0, 1.696958549949138E9, 0.0, 2023-10-10 14:22:29.949
127.0, -126259.61765761586, -126125.4177839062, -110619.69973083732, -125447.84700248802, -88506.91777550195, -88298.82303462304, -134544.24703648651, 50504.90653573353, -0.368, -0.6920000000000001, 0.608, 192.0, 0.0, 0.0, 0.0, 0.0, 0.0, 0.0, 0.0, 0.0, 0.0, 1.6969585499532464E9, 0.0, 2023-10-10 14:22:29.953
128.0, -126327.27638808209, -126211.80727622597, -110726.16108967795, -125542.5289920007, -88606.98653542835, -88388.05119848863, -134634.36927013032, 50407.31881944166, -0.368, -0.6920000000000001, 0.608, 192.0, 0.0, 0.0, 0.0, 0.0, 0.0, 0.0, 0.0, 0.0, 0.0, 1.6969585499561584E9, 0.0, 2023-10-10 14:22:29.956
129.0, -126399.3831156949, -126288.51846319658, -110809.86837266307, -125634.57347566767, -88694.9853533489, -88471.80318496266, -134728.96185266518, 50321.801045155655, -0.368, -0.6920000000000001, 0.608, 192.0, 0.0, 0.0, 0.0, 0.0, 0.0, 0.0, 0.0, 0.0, 0.0, 1.6969585499601586E9, 0.0, 2023-10-10 14:22:29.960
130.0, -126347.63882728087, -126219.11629666285, -110724.84233675509, -125556.69999798537, -88618.98942220086, -88406.29022196415, -134660.2302384651, 50394.55597335768, -0.368, -0.6920000000000001, 0.608, 192.0, 0.0, 0.0, 0.0, 0.0, 0.0, 0.0, 0.0, 0.0, 0.0, 1.6969585499653563E9, 0.0, 2023-10-10 14:22:29.965
131.0, -126256.1531372253, -126119.80749604793, -110597.7503177822, -125445.63417978695, -88512.66217382696, -88293.12333978694, -134550.34906272282, 50500.32442812019, -0.37, -0.6880000000000001, 0.606, 192.0, 244.0, 112.0, 234.0, 128.0, 18.0, 240.0, 0.0, 0.0, 0.0, 1.6969585499693336E9, 0.0, 2023-10-10 14:22:29.969
132.0, -126299.42611449077, -126183.44291251218, -110677.83661816557, -125511.48241895229, -88586.06530261818, -88355.08237541704, -134610.34114484087, 50426.22839525085, -0.37, -0.6880000000000001, 0.606, 192.0, 0.0, 0.0, 0.0, 0.0, 0.0, 0.0, 0.0, 0.0, 0.0, 1.696958549973209E9, 0.0, 2023-10-10 14:22:29.973
133.0, -126386.03912425508, -126282.5058439381, -110793.73041316634, -125619.86602781607, -88696.72878941642, -88461.16375460193, -134720.8481694279, 50326.78548416919, -0.37, -0.6880000000000001, 0.606, 192.0, 0.0, 0.0, 0.0, 0.0, 0.0, 0.0, 0.0, 0.0, 0.0, 1.6969585499772003E9, 0.0, 2023-10-10 14:22:29.977
134.0, -126370.59406883646, -126245.82663128694, -110736.21937468284, -125589.28884140121, -88658.90963779803, -88420.23771050427, -134693.2437650256, 50384.16241218596, -0.37, -0.6880000000000001, 0.606, 192.0, 0.0, 0.0, 0.0, 0.0, 0.0, 0.0, 0.0, 0.0, 0.0, 1.696958549981218E9, 0.0, 2023-10-10 14:22:29.981
